AF3,F7,F3,FC5,T7,P7,O1,O2,P8,T8,FC6,F4,F8,AF4
1.5476,0.6907,0.5214,-1.7122,0.1148,0.0007,0.101,0.5779,0.4226,4.8648,2.614,2.1658,4.1376,2.0396
13.3758,7.1104,8.5284,6.0912,3.6795,-0.0232,0.7099,0.1628,0.1854,18.6766,4.7176,1.952,7.1215,5.7523
10.274,5.7998,5.8173,4.1755,3.5261,-0.0199,0.9143,0.3541,0.1052,10.8976,2.645,1.0845,5.3174,4.4058
-3.4576,-2.8453,-3.8585,-2.29,-1.4774,-0.0048,0.8074,1.1137,0.31,-13.1816,-3.325,-0.6902,-2.3976,-1.2643
-12.2566,-10.9045,-9.5417,-4.2149,-7.3391,-0.0047,0.5985,1.6482,0.5737,-31.1826,-8.8328,-2.5998,-10.5743,-5.8005
-9.4382,-11.9745,-7.882,-3.0382,-8.2905,-0.0172,0.1855,1.4301,0.5075,-33.0367,-10.3802,-2.6799,-12.1893,-5.1344
-0.5516,-6.8227,-3.0378,-3.4805,-4.4944,-0.024,-0.42,1.1966,0.3709,-26.2391,-8.423,0.2224,-6.8193,-0.2058
6.7027,0.2415,1.4187,-3.6142,-1.7734,-0.0144,-0.6985,1.8407,0.8469,-16.2779,-4.6805,3.8992,0.8196,4.7306
7.8352,5.644,3.5333,-1.5709,-2.2656,0.0103,-0.2212,2.6612,1.698,-0.6777,0.8036,4.9748,7.7271,6.167
3.8268,7.4868,2.8784,0.0238,-1.5822,0.0295,0.5864,2.3777,1.8473,18.2173,7.5345,4.0734,13.6019,4.809
2.5418,7.6826,3.6734,2.2304,3.065,0.0171,0.7585,1.2319,1.0641,32.9225,12.5999,4.6569,18.6364,4.8657
9.1314,10.5195,9.5787,8.3365,8.2342,-0.013,0.0176,0.2124,0.2179,41.4073,13.896,6.6311,21.4082,7.7302
15.0544,13.7793,14.1333,11.8297,9.1545,-0.0136,-0.6385,-0.6998,-0.2043,41.4864,12.1002,6.2063,16.352,8.391
8.461,8.4291,7.3016,2.6504,4.5952,0.021,-0.1912,-1.6264,-0.454,23.2311,7.1667,1.8994,0.1692,2.4667
-6.3781,-5.6779,-7.5452,-13.0325,-2.5724,0.0388,0.7998,-1.5553,-0.5317,-12.4104,-1.6772,-3.384,-16.0435,-5.5614
-13.1307,-14.4766,-14.8217,-16.8796,-6.6658,0.0095,0.9415,0.0567,-0.1726,-38.2795,-9.84,-5.2751,-15.4307,-7.0846
-5.9437,-9.6138,-7.5876,-4.8863,-4.1531,-0.0352,0.1702,1.6765,0.3245,-29.4231,-9.2913,-1.9044,-0.1014,-1.1836
3.8938,-1.466,2.8807,6.021,0.8391,-0.0533,-0.2305,1.5824,0.4255,0.68,-0.575,2.998,10.9513,4.4012
4.9284,-1.4434,3.5269,2.6765,1.1188,-0.0371,0.252,0.4849,0.3445,16.6562,5.8351,3.5211,9.9129,4.2411
-0.7621,-4.6891,-2.8226,-6.5288,-2.9359,-0.0029,0.6419,0.2577,0.5777,7.7411,4.0252,0.2027,4.9385,0.9386
-4.4976,-2.5356,-4.614,-6.7901,-4.644,0.0262,0.1302,0.8079,0.8021,-5.8442,-0.5228,-0.6981,-0.3297,-1.2582
-3.0943,1.8559,0.394,1.3055,-2.4754,0.0309,-0.6741,0.841,0.5827,-7.2122,-1.3161,2.5118,-7.5039,-1.6177
1.5757,3.3645,5.349,7.0641,-0.6599,0.012,-0.7087,0.7923,0.4899,0.3441,0.8858,5.2662,-8.8216,0.0668
7.4149,5.7838,6.963,7.4709,0.6367,-0.008,-0.0055,1.4787,0.831,7.8756,2.4249,4.5875,2.5923,3.9723
10.9954,10.597,6.6963,6.0134,4.4573,-0.0122,0.4899,1.4343,0.5898,12.275,2.5477,1.7986,14.9868,6.7384
9.4957,11.0052,5.2053,2.9874,8.0739,-0.005,0.3402,-0.2077,-0.4229,14.3951,3.2293,0.1074,14.2764,5.51
6.5644,6.4225,4.0993,-0.5213,6.7406,0.0018,0.024,-1.0133,-0.5897,16.6909,5.85,2.296,6.8722,3.7818
6.642,4.378,5.0569,-0.5094,3.3093,0.0029,-0.0014,0.1253,0.3289,19.025,8.1635,5.9597,5.149,4.6408
4.862,3.2456,3.5102,-0.2194,2.6447,-0.0007,0.1316,0.1301,0.2396,15.105,6.207,3.9522,5.5578,3.5803
-4.152,-5.3474,-4.5717,-6.1389,1.7641,-0.0067,0.1454,-2.0984,-1.1638,2.014,0.7417,-3.5467,-0.224,-2.4524
-12.3322,-15.9606,-11.0494,-11.4217,-3.492,-0.0136,0.0561,-2.5794,-1.3123,-10.7872,-2.8258,-6.1389,-8.0546,-6.9458
-9.8388,-14.6981,-7.2235,-5.5931,-8.8177,-0.0147,0.0142,0.5095,0.5522,-14.0364,-2.8342,-0.5191,-9.1148,-4.5093
-3.3605,-3.9012,-0.9508,2.8642,-8.541,-0.0006,0.0375,3.1324,1.8943,-12.5588,-3.0621,2.9103,-3.1294,-0.3852
-3.9434,1.8527,-2.8042,0.5045,-5.1093,0.0233,0.0569,2.4394,1.3518,-13.5956,-4.6706,-1.1227,2.8581,-0.624
-6.1573,1.3447,-5.64,-4.5505,-2.9441,0.0356,0.0567,0.807,0.4958,-11.7279,-4.1251,-4.0234,2.8412,-2.2334
0.8214,5.282,1.268,1.272,-0.1821,0.0275,0.0552,0.4703,0.3844,0.4927,-0.0106,-0.1166,-0.7297,-0.0451
11.8248,13.2208,11.1509,10.3618,5.589,0.0088,0.0395,0.5028,0.2531,17.1079,5.0069,5.1324,1.3521,4.813
13.8655,14.077,12.1176,10.0131,9.8456,-0.01,0.0035,0.2413,-0.1285,25.4541,8.177,6.9511,9.6643,7.5473
6.0302,6.1432,5.7297,4.4776,7.1839,-0.0173,-0.0162,0.1621,-0.1963,18.6007,6.9663,5.4398,10.4547,5.0877
-2.6037,-2.1233,-1.0688,0.6664,0.3176,-0.0058,0.0057,-0.3299,-0.3201,-2.3054,-0.6242,-0.3321,-2.6317,-1.5131
-6.0314,-6.9716,-6.5356,-4.3564,-3.6973,0.003,0.0429,-1.6247,-1.0141,-24.8739,-10.1689,-8.2631,-14.4013,-6.6492
-4.0725,-10.1282,-8.5633,-9.8132,-2.7806,-0.0167,0.0582,-2.1733,-1.4352,-29.0865,-11.6752,-9.526,-11.3288,-5.2547
0.2116,-9.9048,-4.4369,-8.8648,-0.1527,-0.0404,0.0458,-1.0951,-0.797,-10.4383,-2.8152,-1.2846,-1.829,0.2393
2.0416,-4.1265,1.2546,-2.9461,1.318,-0.0244,0.0247,0.1823,0.1616,10.1975,6.1646,6.0987,2.3087,3.0485
-1.0908,1.7318,1.4897,0.5149,0.963,0.0123,0.0122,0.5879,0.5241,13.9562,6.7727,4.6693,4.0078,1.4185
-5.9807,0.581,-2.2541,0.3543,-0.742,0.0167,0.0079,0.7517,0.512,6.97,3.1605,0.5237,7.4082,-0.6825
-6.2695,-3.245,-2.7856,0.2731,-2.2897,-0.0029,-0.0013,1.1486,0.7073,5.4471,2.8992,1.3487,8.3077,-0.1915
0.5254,0.7912,2.3569,2.7329,-2.0383,0.0022,-0.0151,1.3254,1.043,11.7333,4.9828,3.9764,5.2298,2.0331
7.9655,9.7996,7.58,6.6177,-0.3059,0.0266,-0.0175,0.8259,0.8993,13.153,3.4488,2.3687,0.6523,2.7926
6.8925,9.3402,5.698,6.1223,0.8619,0.0255,-0.0095,-0.2202,0.0053,0.1484,-2.3043,-1.7828,-5.8392,0.1815
-0.9316,-1.0488,-1.8295,-0.8032,0.5547,0,-0.0124,-0.9388,-0.85,-17.0256,-6.761,-3.6124,-10.233,-2.9796
-4.1091,-5.0091,-5.0565,-4.3151,0.2139,-0.0138,-0.0315,-0.4859,-0.7027,-17.3441,-5.8784,-2.9532,-3.404,-2.2013
0.6776,2.4027,-0.0423,2.2668,1.3806,-0.0107,-0.0522,0.487,0.0391,1.1213,-1.1627,-1.7717,10.3593,1.6379
4.8086,7.1393,5.0448,7.9479,3.3247,-0.0094,-0.0688,0.4303,0.1538,15.666,3.1507,0.2713,13.0846,3.4261
3.5088,2.0974,3.769,2.7033,3.6369,-0.0084,-0.0758,-0.74,-0.4479,10.787,3.8691,2.5634,-0.2253,1.4366
1.2664,-2.8454,0.3273,-4.3802,1.0919,0.0036,-0.0566,-1.4584,-0.7063,-2.4359,0.8481,1.8235,-12.9952,-1.3447
0.9204,-0.8807,-0.2689,-2.6966,-2.1515,0.0166,-0.0232,-0.8553,-0.1974,-6.3274,-2.3079,-1.7465,-10.7125,-2.1139
0.3801,2.111,0.6319,2.6591,-2.4078,0.0124,-0.0203,0.0043,0.254,1.0569,-1.5896,-3.2553,0.7803,-0.9834
-0.7722,0.8853,0.9125,3.7176,0.3571,-0.0043,-0.0531,-0.2739,-0.0614,9.9209,2.0438,-1.3415,6.0521,-0.0519
-1.2872,-1.8811,0.6454,1.2882,1.6404,-0.009,-0.0716,-1.1538,-0.5343,12.0832,4.0592,0.2976,1.2699,-0.6393
-1.9966,-3.3923,-0.7883,-2.3075,-0.8144,0.0031,-0.0552,-0.8786,-0.1997,6.3703,3.0617,0.6264,-3.2378,-1.2843
-2.9525,-4.3688,-3.318,-6.7043,-2.8911,0.0082,-0.0437,0.3538,0.4705,-1.7107,1.4393,1.4656,-0.4177,-0.1628
-1.2156,-3.3886,-3.6281,-8.1464,-0.8755,-0.0007,-0.065,0.4688,0.2842,-5.0532,0.2028,1.4195,3.3095,1.4101
3.5413,2.5413,0.6428,-1.6582,1.8308,0.0023,-0.0965,-0.5973,-0.4109,-3.2543,-2.0078,-1.6111,-0.0598,0.8714
5.1482,8.3613,5.0754,9.6813,0.4234,0.0169,-0.1116,-0.8609,-0.495,-4.5223,-6.005,-5.7138,-7.4387,-2.0822
-2.3695,2.6615,1.529,13.5159,-3.2541,0.0041,-0.1139,-0.5217,-0.5431,-17.2636,-11.307,-8.8727,-12.2214,-6.413
-14.7038,-13.6696,-10.0896,2.1649,-4.8967,-0.0317,-0.1147,-1.3418,-1.4864,-38.0648,-15.9204,-10.9692,-15.7375,-10.6327
-19.2933,-23.0485,-17.886,-14.0044,-5.4847,-0.0319,-0.1152,-2.1826,-1.9172,-49.0358,-15.8663,-9.8065,-19.9114,-11.3848
-11.5788,-15.823,-13.1764,-17.675,-7.8402,0.0107,-0.1112,-0.7298,-0.3062,-35.6452,-9.2636,-4.1451,-17.6998,-6.6841
-2.5498,-3.9481,-3.4506,-8.0343,-9.3323,0.0351,-0.0958,1.5569,1.6565,-7.7103,-0.5421,1.1167,-5.0556,-0.7613
-1.8208,0.7312,0.4689,0.8585,-5.1625,0.0212,-0.0731,1.6452,1.5322,11.5973,4.6725,2.2136,7.0178,1.1056
-2.6906,2.6739,1.1773,2.5953,2.9476,0.0086,-0.0745,0.113,0.0879,16.6062,6.7681,3.1617,7.5293,0.8448
3.792,7.3848,5.7472,3.4631,7.6051,0.0098,-0.1115,-0.4843,-0.3943,19.8302,8.5562,6.4701,2.6049,2.9582
11.6163,10.6456,10.8313,7.4765,5.8045,0.0046,-0.1107,-0.1503,0.1159,25.5026,8.6743,6.3901,3.1866,5.3809
11.0666,9.7349,9.7064,9.9818,3.1704,-0.0015,-0.0183,-0.7756,-0.0651,25.2768,5.2446,-0.2143,6.721,3.6142
5.0578,7.2108,4.1037,5.7581,5.206,0.004,-0.0076,-2.6843,-1.3794,17.1419,1.3755,-6.418,5.097,-0.4117
1.0693,3.0343,-0.5421,-2.918,8.1257,0.0061,-0.3322,-4.0498,-2.4076,7.9664,0.3017,-6.1271,0.1324,-1.9534
-0.8642,-2.2507,-2.3988,-6.7908,4.4231,0.0001,-0.7873,-3.0228,-1.7316,0.4785,-0.2972,-2.8309,-2.0516,-1.3996
-2.573,-3.0953,-1.4705,-0.344,-4.3016,0.0052,-0.7258,-0.0304,0.2049,-7.6025,-3.4561,-1.7689,-3.4795,-1.8592
-3.1792,0.0454,0.3056,7.8456,-8.7982,0.018,-0.0258,2.0262,1.3128,-17.1819,-7.5913,-2.5444,-10.134,-3.7576
-5.1821,-2.629,-2.4275,4.4406,-6.5997,0.0144,0.5264,1.0655,0.4123,-28.6719,-10.4934,-3.8025,-20.0981,-6.3494
-11.9928,-12.6383,-10.912,-8.1005,-4.5046,-0.0008,0.3833,-1.1639,-1.1089,-40.0503,-12.7274,-6.6451,-23.4557,-9.256
-18.8739,-18.0953,-17.2281,-14.0373,-5.6883,-0.0048,-0.0532,-1.7389,-1.4249,-42.6811,-13.8514,-10.05,-15.3809,-10.6715
-18.4573,-13.8468,-14.8258,-8.6031,-6.0718,0.0015,-0.388,-1.0256,-0.8723,-31.7922,-11.5786,-10.0351,-5.6654,-9.2256
-11.8953,-8.6236,-7.6466,-2.9175,-4.1741,0.0046,-0.7052,-1.0873,-0.6522,-16.1617,-6.2668,-5.5535,-6.398,-6.5327
-4.8618,-7.0429,-2.2984,-3.2547,-2.6036,0.0039,-0.7586,-1.524,-0.5736,-3.948,-0.5619,-0.1846,-11.2982,-3.7665
1.2281,-3.4791,0.832,-3.4711,-0.4491,-0.0023,-0.1806,-0.9385,-0.1501,8.4904,4.2866,2.5425,-4.0028,0.3175
7.1174,3.8225,4.0231,0.6607,4.5646,-0.018,0.4763,-0.1927,-0.0278,21.7084,7.2992,2.3295,12.8235,5.0393
11.6191,10.2132,7.764,6.2829,8.8054,-0.0248,0.4148,-0.4134,-0.4233,27.4353,7.2206,1.3924,19.0142,7.01
13.6656,14.9594,11.9811,11.4287,7.5979,0.0025,-0.1004,-0.5889,-0.2707,27.0679,6.3379,2.1379,9.0944,5.5951
13.7978,19.3547,15.307,14.5333,3.7312,0.0478,-0.3668,0.0081,0.6628,31.6138,8.524,4.4605,0.03,4.1443
12.4301,19.5539,14.3004,11.7045,3.0144,0.0619,-0.3233,0.1665,1.0219,38.6252,11.8216,5.2769,3.9365,4.6209
8.7038,12.6866,8.0365,4.2848,5.4891,0.0302,-0.1336,-0.9637,0.011,34.0443,10.2943,1.8734,11.7019,4.4084
1.5864,3.2242,0.2647,-0.7515,7.0206,-0.0037,0.1217,-2.7887,-1.623,16.4118,3.4543,-4.5409,8.2245,0.0406
-6.9861,-3.9664,-5.2647,-2.4943,5.1686,-0.0019,-0.045,-4.4102,-2.7581,-2.9078,-3.5272,-9.4443,-7.2664,-6.9777
-12.0186,-9.6778,-8.0139,-5.524,-0.4818,0.0153,-0.8863,-4.6695,-2.6253,-18.1113,-7.9221,-9.735,-21.3754,-10.9782
-12.3449,-15.6853,-9.4533,-8.6916,-8.6793,0.0096,-1.3939,-2.7187,-1.1689,-29.4374,-10.7043,-7.3744,-23.4468,-9.9793
-13.3682,-20.0921,-11.3363,-8.0093,-14.5132,-0.0123,-0.5874,-0.0874,0.3357,-34.242,-11.7717,-6.5541,-17.4066,-8.515
-17.1585,-19.6575,-13.3545,-5.8353,-13.0801,-0.0151,0.6388,0.5122,0.3849,-31.6895,-10.4657,-7.7497,-14.1529,-9.7962
-16.7189,-13.8446,-12.1566,-5.5443,-6.8238,0.0031,0.7746,-0.6064,-0.5008,-26.5872,-8.2984,-7.358,-15.3105,-10.0936
-7.468,-5.4784,-5.9091,-4.3992,-2.2968,0.0105,0.0807,-0.5033,-0.4735,-19.6985,-5.9071,-3.0299,-11.7559,-5.0645
3.968,2.2483,2.0249,0.1583,0.204,-0.0041,-0.166,1.199,0.5267,-4.867,-0.9669,3.0914,0.9026,2.8118
10.1574,8.6011,7.8378,5.6242,4.6978,-0.0156,0.0353,1.6022,0.7754,18.2291,6.5389,6.6534,13.9312,7.6538
12.4671,13.5248,11.5564,9.3864,8.8567,-0.0052,-0.214,-0.2286,-0.0276,37.4646,11.5344,5.624,17.082,7.7248
12.9456,14.4111,12.5091,9.9096,6.5594,0.0162,-0.7935,-1.6239,-0.3284,39.5771,10.322,2.1311,11.5518,5.4294
7.8258,8.6844,7.4181,4.8539,-0.408,0.0308,-0.8275,-1.085,0.2625,23.9319,5.313,-0.7333,4.6714,2.1965
-3.2762,-1.187,-2.3438,-3.5753,-4.1923,0.0319,-0.3278,-0.7825,0.1582,0.9271,-0.2514,-3.2508,-3.4123,-2.8041
-12.7013,-9.9731,-9.9498,-8.1201,-2.9657,0.0187,-0.0705,-2.6186,-1.484,-21.7287,-7.4366,-7.9662,-17.3118,-9.4505
-15.2956,-15.591,-12.9376,-7.706,-2.1264,-0.0053,-0.2238,-4.6479,-3.1403,-43.2442,-16.8589,-14.0142,-30.9136,-14.3884
-13.6626,-17.8119,-14.2175,-7.9185,-4.7399,-0.0267,-0.2841,-3.6221,-2.8067,-58.2383,-23.1586,-15.9433,-29.3992,-13.4688
-10.5224,-14.3875,-12.9617,-7.7955,-7.4869,-0.0294,-0.1073,0.0546,-0.7015,-54.6595,-20.4621,-10.666,-12.9693,-7.2492
-5.4429,-4.9784,-6.1566,-2.2461,-5.9637,-0.0101,-0.0768,2.3998,0.8949,-31.1949,-10.7013,-2.4576,-0.6233,-1.4043
0.6652,4.4735,2.3863,3.7003,-0.4469,0.0157,-0.3327,1.3654,0.6902,-2.9867,-0.5165,2.9508,-0.9031,0.9308
5.3341,7.9309,6.342,2.1824,4.4609,0.0254,-0.5056,-0.4536,-0.0037,17.9225,7.3521,5.7109,-0.0956,2.8347
7.7416,7.0018,6.8854,-1.0426,5.3995,0.0143,-0.3279,-0.4013,0.2822,33.4044,13.5703,8.0272,10.0869,6.166
8.2005,7.1129,8.3967,3.082,4.2249,0.0038,-0.0497,0.0533,0.7247,45.2132,16.6355,7.7782,17.2676,7.0884
6.7847,8.4201,9.3425,8.8126,4.6066,0.0086,-0.0035,-1.3771,-0.056,46.7414,14.5157,2.954,12.1507,3.499
3.7454,5.6009,5.8393,5.942,5.6983,0.0098,-0.1031,-3.3639,-1.3786,34.0737,8.9292,-2.4824,3.3414,-0.6062
-0.7362,-3.1997,-0.8365,-2.0748,2.8853,-0.0076,-0.0917,-3.302,-1.6242,11.6832,2.3865,-4.4872,-2.1204,-2.594
-5.6328,-10.9794,-6.0232,-5.2992,-4.5553,-0.0168,0,-1.475,-0.709,-13.6015,-5.3407,-5.4227,-9.161,-4.7957
-6.8425,-9.2341,-6.7858,-2.8169,-10.3698,0.0056,-0.0191,0.1934,0.2611,-32.8095,-12.8665,-7.6846,-16.6268,-6.8848
-1.3884,0.0162,-3.3385,-0.3298,-8.45,0.027,-0.1357,1.1068,0.6684,-34.7111,-14.4413,-7.2857,-13.3926,-4.2951
5.2967,5.9265,0.9676,-0.3885,-0.7902,0.0121,-0.1867,1.3598,0.5188,-18.0751,-7.3991,-1.4327,-0.2805,2.0343
5.2622,4.467,2.2131,-1.9581,4.9024,-0.0078,-0.1342,0.6689,0.0485,2.9165,2.2699,4.2619,7.8526,4.8649
0.8604,3.4084,0.8059,-3.891,4.5289,0.0154,-0.0779,-0.4403,-0.1606,14.3498,6.9599,3.8184,6.0415,2.4095
-0.1524,7.1141,0.1506,-4.8936,1.0964,0.0594,-0.0744,-0.7908,0.1863,14.9173,5.8372,-0.2541,2.8888,0.0134
1.256,7.8395,0.5327,-3.5134,-0.6956,0.0594,-0.0832,-0.4476,0.395,9.2138,2.7103,-2.0495,1.8319,-0.1473
0.1775,0.2541,0.1517,0.0536,0.1018,0.0017,-0.0664,-0.2186,-0.0923,0.4441,-0.0913,-0.4105,-0.3571,-0.177
-0.3482,-3.4085,-1.4412,-0.7999,-1.7408,-0.0159,0.0555,0.2176,0.0385,-6.7807,-2.6858,-1.1742,-0.4632,-0.2478
-7.4345,-12.0067,-6.6996,-3.3244,-6.7523,-0.0262,0.0794,0.8898,0.2677,-25.5294,-7.9798,-2.0676,-8.8693,-3.8171
-10.4915,-13.5464,-8.9649,-3.4548,-5.1032,-0.0334,0.3823,0.5182,-0.2853,-31.5992,-9.9917,-3.6261,-10.8238,-5.5842
-9.348,-10.4427,-8.0921,-1.074,-0.4598,-0.0401,0.5246,-0.5584,-1.1877,-27.5962,-10.052,-5.8919,-7.5787,-5.613
-6.1247,-6.8245,-5.3887,1.8593,1.0955,-0.0385,0.0909,-1.2122,-1.5095,-23.0788,-10.2967,-7.1641,-5.3707,-4.8203
-1.268,-1.398,-1.2779,3.1587,0.7424,-0.0192,-0.4729,-0.6085,-0.8894,-18.1642,-8.5584,-4.2612,-4.6037,-2.2789
5.1429,4.8863,3.2158,2.2523,1.2414,-0.0022,-0.504,1.3042,0.4301,-8.0725,-2.8291,2.8744,1.371,3.2396
9.6928,5.922,5.4344,1.0872,0.5017,-0.0139,-0.1871,3.2768,1.7031,2.7734,2.6164,8.2669,12.458,8.6461
8.8435,1.1867,4.6079,1.633,-2.092,-0.0361,-0.2478,3.2417,1.8635,7.3582,3.2895,7.0399,17.2427,8.8033
4.5492,-2.3709,3.0083,1.9649,-1.8886,-0.0323,-0.6969,0.6648,0.5998,9.7774,2.5179,2.5441,10.1555,4.1701
1.7214,-1.3026,2.1831,-0.3172,2.2285,-0.0071,-0.6714,-2.103,-0.8403,16.504,4.9817,0.2944,1.4972,0.3593
1.9173,2.1219,2.2221,-1.2676,4.5253,0.0106,0.1539,-2.3358,-0.9422,22.7856,7.8636,0.1001,1.2144,0.0429
2.4619,5.267,3.0862,3.4427,2.6266,0.0129,0.8623,-0.5686,-0.0476,20.5367,6.4349,-0.4694,4.4528,0.5729
-0.2505,3.9795,2.2533,7.2979,0.6844,0.0053,0.6745,0.1649,0.0968,9.0578,1.6753,-1.6616,1.708,-1.0708
-6.6971,-5.4023,-3.8758,0.7382,-0.6304,-0.0095,0.1099,-0.9774,-0.8139,-10.0423,-3.9957,-3.6472,-7.1641,-4.6926
-11.9833,-16.8076,-12.2093,-11.2966,-5.4722,-0.0201,-0.0253,-1.3334,-1.0525,-34.985,-11.0362,-6.3917,-15.754,-7.5295
-10.5999,-18.6119,-13.9757,-13.6725,-11.8913,-0.0182,0.1522,0.6701,0.1399,-54.3456,-17.7011,-7.3538,-19.2398,-7.1154
-3.6581,-9.7434,-6.7543,-3.0961,-11.6479,-0.0178,0.1704,2.7071,1.1816,-49.7762,-17.5442,-4.4483,-14.8746,-3.5574
3.4649,0.2129,2.1473,6.7815,-3.5743,-0.0267,0.114,2.4644,0.9624,-18.2572,-7.4636,0.5581,-1.9124,1.4528
8.7452,5.8687,6.4025,5.536,3.5996,-0.0248,0.2767,1.2464,0.6111,18.0851,5.7974,4.4199,14.1966,6.5046
12.7666,9.3816,7.5058,0.1622,4.7144,-0.0058,0.4613,1.0098,1.0005,35.8842,12.6937,5.8395,23.4308,9.8645
13.533,11.446,8.6729,1.4201,4.5175,0.0056,0.2241,0.7931,0.9722,35.6539,12.0563,5.3756,21.03,9.3928
8.0362,9.0958,7.999,5.9619,6.5498,0.0009,-0.3785,-0.8871,-0.3109,29.313,8.9581,3.4258,11.0627,4.702
-2.4961,1.7019,2.0705,4.0619,6.0626,0.0028,-0.752,-2.7035,-1.5678,16.1249,4.5794,-0.3858,-0.5417,-2.0735
-11.7994,-6.8525,-6.5003,-2.9191,0.0942,0.0121,-0.5173,-2.5937,-1.5218,-7.2308,-2.7024,-5.0707,-9.7599,-7.4672
-13.4907,-12.0215,-10.6615,-6.0326,-5.5908,0.0007,0.0257,-1.0416,-0.7572,-27.304,-9.4979,-7.4411,-12.8217,-8.4311
-8.0271,-12.4686,-8.3858,-3.9467,-6.4218,-0.0287,0.3054,0.1762,-0.2409,-30.5935,-11.0566,-6.0228,-9.7317,-5.3074
-3.2745,-10.6715,-5.4499,-3.1282,-6.0872,-0.0358,0.1615,0.6471,0.0995,-26.3384,-9.5568,-3.6944,-7.0503,-2.5002
-4.607,-9.8165,-6.5779,-5.7597,-7.9179,-0.0132,-0.0041,0.9723,0.4737,-29.8544,-10.0871,-3.5398,-9.2751,-3.1143
-7.4285,-9.2974,-8.4138,-6.3069,-8.7444,0.0002,0.2295,1.4639,0.6565,-36.5046,-11.8893,-4.2317,-11.7329,-4.5703
-4.5822,-5.3582,-5.0916,-0.797,-5.9506,-0.0106,0.6576,2.2079,0.8158,-30.0084,-9.8012,-2.1461,-7.6662,-2.5953
3.0905,2.6269,2.9077,6.5561,-2.0719,-0.0153,0.6083,2.9599,1.3697,-5.4937,-1.5558,3.3656,3.0222,2.7699
9.783,10.6402,10.171,9.3467,1.1361,0.0029,-0.0867,2.7895,1.8693,26.5883,9.7015,8.9915,14.9633,8.0077
13.4893,15.298,13.5349,7.1543,5.607,0.0206,-0.6935,1.1202,1.3854,51.0531,18.2921,11.2008,22.349,10.6507
14.6543,15.0466,12.7709,3.3882,10.9678,0.0145,-0.5577,-1.3165,-0.098,56.7523,19.8193,8.8135,21.6975,10.0329
10.6811,8.4157,7.3394,-0.5422,12.4233,-0.0065,-0.025,-3.3573,-1.6783,40.866,13.385,2.4246,12.8263,5.492
0.0876,-1.782,-1.5643,-4.0246,7.7147,-0.0142,0.1804,-4.1516,-2.4725,10.8947,2.2768,-5.1859,-0.7137,-2.1634
-10.8061,-7.9699,-8.498,-4.717,0.741,0.0005,0.0194,-3.0819,-2.0673,-17.8918,-7.4463,-9.0274,-12.2063,-8.4338
-13.778,-8.2567,-9.4024,-2.1486,-4.1676,0.0103,-0.0555,-0.7054,-0.855,-33.5784,-11.9782,-7.3064,-16.5479,-9.2708
-9.6249,-8.4104,-7.1193,0.0709,-6.9067,-0.0057,0.0716,1.0506,0.1117,-38.074,-13.3296,-4.7475,-15.7085,-6.6502
-5.4479,-9.2268,-5.9164,-0.4529,-8.4906,-0.0189,0.1505,1.369,0.4074,-38.9202,-14.2484,-4.9423,-14.4695,-4.8842
-3.1413,-5.0971,-4.4671,-1.4326,-7.3496,-0.0017,0.0822,1.3996,0.5988,-32.457,-11.882,-4.0897,-11.256,-3.3675
1.2684,2.877,0.1402,-0.568,-1.8899,0.0144,0.0005,1.6063,0.8443,-9.6971,-2.7014,1.3394,-0.5857,1.1884
8.1435,7.3497,5.8238,0.9069,4.9952,-0.0045,-0.0585,1.1349,0.6667,21.0653,8.6583,7.1102,14.7605,7.3989
11.3917,7.1485,8.0324,1.5168,7.4961,-0.0229,-0.2235,0.1558,0.2377,35.541,12.9181,7.6727,21.4165,9.5124
6.2531,5.1905,5.4145,1.7887,3.42,-0.0007,-0.4431,-0.2088,0.1877,23.5193,8.0328,4.0461,11.1228,4.8071
-3.2583,0.3059,0.4292,1.6344,-3.3369,0.0274,-0.3867,0.1202,0.4865,3.274,1.4781,0.7379,-5.0217,-2.1689
-7.456,-6.0318,-3.036,-0.2972,-7.1202,0.0179,0.0564,0.4772,0.7404,-3.3694,-0.1103,-0.3612,-8.9065,-4.3799
-2.8346,-5.6479,-2.7146,-3.3171,-5.2058,-0.0001,0.4767,0.4949,0.715,2.1701,1.6167,-0.4523,-0.4507,-1.0669
2.8017,2.357,-0.4253,-4.2064,0.9774,0.0105,0.4425,-0.2502,0.0403,5.0047,1.7075,-1.2041,4.4504,1.5059
1.3822,6.6269,0.1778,-1.3245,6.7357,0.0202,0.0759,-1.7428,-1.2819,0.4561,-0.7203,-2.853,-0.5978,-0.6859
-4.0457,1.2431,-1.4605,2.8247,7.3436,-0.0054,-0.0965,-2.5037,-2.1075,-5.5404,-3.3336,-4.174,-5.6586,-4.0423
-5.6149,-5.2496,-3.0505,3.7121,2.7213,-0.0347,0.1825,-1.314,-1.3955,-8.5978,-4.4158,-4.1447,-2.9419,-3.8176
-3.0729,-4.9279,-3.4939,-0.5166,-2.4522,-0.0205,0.4762,0.4813,0.0966,-8.1182,-3.3608,-2.8639,1.7148,-1.2592
-1.5105,-1.7625,-3.0186,-5.6499,-4.7115,0.0195,0.1843,0.8697,0.8535,-5.5572,-1.0169,-0.7622,-0.4265,-0.3149
-1.0918,-1.8544,-1.1465,-5.2742,-4.9847,0.0285,-0.4614,0.3865,0.7725,-3.5133,0.3257,1.6233,-6.23,-0.6936
1.5913,-2.7195,1.9176,0.1743,-4.2877,-0.0009,-0.6325,0.6388,0.7204,-1.2261,0.3191,3.2109,-5.0776,0.6794
4.4771,0.4755,3.7104,3.6992,-1.3432,-0.0175,-0.2614,1.0581,0.6705,3.9774,1.1016,3.0142,3.2264,2.9525
1.89,4.5612,2.1205,2.6581,2.6845,0.0023,-0.0498,0.3013,0.0661,7.4687,2.1728,1.0509,6.814,1.9585
-4.5652,3.0049,-1.4206,1.1002,3.5242,0.0185,-0.054,-0.7611,-0.6643,1.4857,0.4719,-1.3458,0.3922,-2.1764
-5.8276,-2.2717,-2.9439,0.6413,1.2727,0.0009,0.2364,-0.6752,-0.7247,-8.1041,-2.4736,-1.8456,-6.6451,-3.7882
1.3519,-3.1376,-0.3218,-1.0921,1.33,-0.0228,0.4797,-0.2792,-0.4244,-4.9686,-1.0205,0.5848,-4.48,0.0173
8.5354,1.9063,3.8412,-3.311,5.0695,-0.0175,-0.0382,-0.9821,-0.5237,12.2262,4.9472,3.4745,3.8623,4.6316
7.3232,5.9821,4.9644,-2.5417,7.0853,0.0066,-0.7374,-1.8412,-0.7846,23.5551,8.3572,3.5255,8.0815,4.5392
0.6837,4.6949,2.2956,1.0375,3.7612,0.017,-0.51,-1.0516,-0.4205,15.6783,5.1254,1.0228,5.2882,0.9264
-2.7864,1.7386,-0.2686,3.9787,-1.5411,0.0094,0.3158,0.8482,0.4981,1.996,0.0697,-1.126,2.8374,-1.0558
-0.9756,2.3426,0.1102,3.8875,-2.9494,0.0085,0.651,1.5623,0.9878,2.1625,0.0323,-1.1529,4.8643,0.0143
1.0248,4.6875,1.4692,0.744,1.0587,0.0207,0.4543,0.2662,0.3666,11.5172,4.2754,0.7492,4.0595,0.9113
-0.7891,1.7421,0.4446,-3.006,5.1072,0.0175,0.1916,-1.4995,-0.8573,8.8385,5.1545,2.5523,-5.3946,-0.8317
-5.0323,-6.9452,-2.9716,-4.0482,2.6753,-0.0103,-0.2588,-1.9819,-1.4272,-9.0418,-1.0651,1.0239,-14.3473,-3.8555
-7.4434,-11.2071,-5.5027,-2.2683,-4.1409,-0.0236,-0.7461,-0.9473,-0.7264,-20.8875,-7.637,-3.4013,-10.5607,-4.9125
-4.8535,-3.8922,-3.9136,-0.5563,-6.0463,0.003,-0.5084,0.6642,0.5184,-12.1934,-5.7443,-4.1696,1.3252,-2.2405
1.9128,7.5508,1.7273,0.0331,-0.3139,0.0348,0.2172,1.6471,1.1442,6.2668,3.0529,2.4312,6.3349,2.5057
7.2825,10.7627,6.7802,0.5281,5.0487,0.0326,0.1543,1.1316,0.7738,17.0911,9.0366,9.1111,2.139,5.2388
5.9946,4.7545,6.1927,0.7175,4.3157,0.0087,-0.6836,-0.5634,-0.0897,17.5463,7.7281,7.0091,-0.0325,3.6476
1.0832,-0.4617,1.8656,0.7096,1.9201,-0.0064,-0.7673,-1.7448,-0.6975,15.2657,4.0295,-0.4122,4.4626,0.5129
1.3087,2.2176,1.2163,2.579,3.0654,-0.0076,0.2945,-1.165,-0.5952,15.1204,3.3049,-2.7855,8.2138,0.4667
7.0298,8.1829,5.2401,5.083,5.0062,-0.0016,1.0849,0.2587,0.0514,16.5816,5.1149,1.2451,6.6746,3.278
7.2293,6.8711,5.2542,2.3257,2.7807,0.0076,0.7551,0.6803,0.5264,14.9582,5.8696,3.6805,3.6162,3.7602
-3.2489,-4.1178,-3.045,-6.0752,-2.3413,0.0108,0.0461,-0.2476,0.2287,3.2372,2.7193,0.5381,-0.4799,-0.8363
-13.5676,-13.4864,-10.7568,-10.875,-4.9848,0.0065,-0.2777,-1.2725,-0.5927,-16.8063,-3.7737,-3.5797,-9.8997,-6.7097
-12.2963,-9.6594,-8.6468,-6.2983,-2.9687,0.013,-0.3289,-1.4157,-1.0521,-27.6565,-8.1812,-4.0266,-19.2955,-8.2466
-3.6609,2.4833,-0.9996,0.9981,1.102,0.0312,-0.3682,-1.0432,-0.8297,-15.9761,-5.6942,-2.2577,-15.4183,-4.7723
0.5001,7.1983,1.9098,2.7006,3.7444,0.0275,-0.4065,-1.031,-0.6244,4.1867,0.0962,-1.7297,0.0784,-0.8163
-2.2756,0.0963,-1.2451,-0.3097,3.544,-0.0066,-0.4844,-1.3474,-0.8725,8.1485,1.6488,-2.1101,8.4274,-0.0908
-4.3772,-6.3033,-3.4858,-3.0393,1.1968,-0.0235,-0.5769,-1.0348,-0.8176,-3.1635,-0.8734,-0.7353,2.0289,-1.0365
-0.1993,-1.807,-0.5357,-3.2787,-1.325,0.0049,-0.4473,0.3117,0.2361,-6.0259,-0.5985,2.5102,-4.2151,0.3241
6.9779,7.4032,4.8999,-0.7189,-1.8163,0.0339,-0.0659,1.6714,1.4789,9.002,4.4979,5.1924,1.9698,4.2538
9.727,9.4218,7.5712,2.9242,0.5134,0.0176,0.2179,1.6814,1.5148,25.2488,9.2716,5.9623,12.0517,6.7422
6.3437,4.1869,6.0073,4.082,4.3121,-0.0184,0.229,0.3988,0.3613,28.1261,10.2798,5.6688,13.4911,5.5987
3.0231,2.5803,4.3547,3.1178,7.5864,-0.0214,0.1843,-0.7054,-0.5766,25.0915,9.9809,5.5859,8.9422,3.5892
3.7554,8.8159,5.7781,3.7683,9.0682,0.0124,0.1965,-0.8839,-0.5765,27.0338,10.6278,5.398,6.3141,3.0324
4.1745,12.5243,6.3942,4.2678,7.7906,0.041,0.1242,-1.1573,-0.4698,26.1944,9.3777,3.1868,2.789,1.6611
0.6308,4.51,1.9117,-0.1605,3.7302,0.0307,-0.0404,-2.1466,-0.9443,11.4626,3.6726,-1.0755,-5.8136,-1.9174
-3.3452,-7.6608,-3.9385,-5.9735,-0.4591,-0.007,-0.126,-2.5015,-1.3024,-6.7682,-2.4013,-3.7658,-11.007,-4.1318
-5.0344,-10.8116,-5.5727,-5.6285,-1.6121,-0.0301,-0.096,-1.2835,-0.8641,-10.8366,-3.4395,-2.7779,-4.7792,-2.8818
-6.5199,-6.0158,-4.331,-1.1981,-0.455,-0.0199,-0.0681,0.0461,-0.2402,-3.9504,-0.8993,-0.8429,3.6972,-1.5257
-7.1143,-3.5331,-3.5933,-0.6794,0,-0.0017,-0.0862,-0.0032,-0.1547,-0.4118,0.7474,-0.0653,2.1887,-1.997
-2.8009,-3.6455,-2.0706,-4.0325,0.0981,0.0027,-0.0892,-0.7221,-0.3534,-1.3623,1.0354,0.9422,-4.9753,-1.4336
4.8965,1.2864,1.6625,-4.4469,2.2063,0.0067,-0.0681,-0.8567,-0.4167,-1.4041,0.66,1.9495,-6.7932,1.2075
8.604,8.7836,4.3002,-0.3947,4.2489,0.0178,-0.0651,-0.3287,-0.3122,-2.7961,-1.4731,0.6663,-2.989,2.6484
4.7334,8.0263,2.6414,2.8847,1.8473,0.0166,0.015,0.4693,0.0625,-6.2739,-3.7056,-1.5329,0.1898,1.2088
-1.7524,-0.0268,-0.7552,2.2101,-2.903,0.0031,0.2902,1.1981,0.6758,-4.3254,-1.7589,-0.723,0.7426,-0.6169
-3.3726,-2.4612,-0.8287,0.2258,-3.2647,0.0052,0.4823,1.3047,0.9825,5.8692,3.91,2.9228,0.7909,-0.2329
0.5955,3.3904,2.5915,0.2553,1.1043,0.0207,0.1746,0.5578,0.6315,16.6105,7.9066,5.1952,2.5895,1.7811
3.8213,6.4044,4.6627,1.3672,3.9122,0.0185,-0.3338,-0.4153,0.0518,20.9816,7.9339,4.1439,5.7394,2.9422
2.7178,2.7073,3.2609,0.5253,2.8617,0.0039,-0.344,-0.7863,-0.1351,20.3259,7.2428,2.7323,6.5422,2.362
0.5504,0.317,1.7389,-2.0716,1.6461,0.0091,-0.065,-0.5563,0.0926,19.7814,8.6318,4.125,3.4367,1.5973
0.056,1.4491,2.286,-2.8471,2.3111,0.0223,-0.3236,-0.6574,0.0918,20.8333,9.9884,6.0596,0.6536,1.4615
0.3734,0.4912,2.807,-0.1568,3.4886,0.0044,-0.9236,-1.5854,-0.6052,19.1072,7.4332,3.7757,1.9732,1.0121
1.8482,-1.1689,2.138,2.9771,4.5672,-0.0308,-0.8465,-2.1966,-1.3648,11.4565,1.7165,-1.4606,5.6587,0.7117
4.3978,2.0377,1.5772,2.5401,5.3558,-0.0308,-0.0607,-1.2739,-1.1476,2.6342,-1.7169,-3.1867,7.2889,1.7263
3.3761,5.2451,0.3745,-1.8967,3.7266,0.0087,0.4206,0.0886,-0.2283,-3.0703,-0.9856,-0.4576,2.2584,1.6574
-3.4642,-0.4483,-3.7166,-7.4938,-1.4303,0.037,0.2117,-0.0603,0.0851,-11.8157,-1.7076,0.1494,-10.4754,-2.5246
-9.647,-10.7123,-8.9262,-10.7769,-6.6453,0.0241,-0.0138,-1.0463,-0.3891,-27.8816,-7.6787,-4.0347,-21.6282,-7.5233
-8.375,-12.2138,-9.5691,-8.452,-7.011,-0.0056,0.295,-0.3164,-0.3597,-36.3803,-12.0185,-6.1618,-17.5665,-6.6752
-0.9359,-0.9399,-2.5028,0.2658,-1.7566,-0.015,0.7769,2.2125,0.7436,-16.8724,-5.2585,-0.2064,1.7163,0.6719
7.6107,13.5411,8.459,9.6531,5.5097,0.0019,0.6308,3.277,1.6071,25.2203,9.9701,8.9699,20.216,8.3196
12.7695,18.8308,14.7633,11.1677,10.2607,0.0195,-0.2728,0.7693,0.8364,56.762,20.1899,11.4955,23.8569,10.3048
9.5472,10.6774,10.5353,3.8482,9.2946,0.018,-1.0087,-2.9325,-0.9002,51.9517,17.0777,5.1688,13.1111,5.3954
-1.9137,-2.5869,-0.3748,-3.943,2.9968,0.0105,-0.8006,-3.9032,-1.6243,20.5696,6.1154,-2.7498,-0.8682,-2.4442
-10.3846,-7.7515,-6.7256,-4.6843,-3.119,0.0141,-0.1258,-1.6971,-0.7233,-5.433,-1.7368,-4.7651,-7.6254,-6.3529
-6.2046,-3.1823,-3.1825,0.0007,-3.7652,0.0125,0.2183,0.6588,0.384,-9.8152,-2.5469,-0.8292,-6.8723,-3.4722
2.3771,-0.9139,1.63,1.77,-1.4858,-0.0107,0.3683,1.0429,0.4754,-6.5296,-1.3682,2.4477,-5.9615,0.6162
0.1174,-7.8117,-2.9894,-4.4864,-2.8555,-0.0281,0.7405,0.3094,0.0373,-13.675,-3.57,-0.4268,-7.3472,-0.7548
-10.7737,-15.2632,-12.8294,-12.9982,-7.2805,-0.0136,1.0386,-0.0279,-0.0386,-25.5041,-7.2801,-6.4427,-6.6834,-5.4896
-12.891,-12.4603,-13.1592,-12.3306,-7.1399,0.0058,0.7664,0.0427,0.1011,-21.778,-6.2997,-7.0044,-3.1231,-5.9004
-0.058,0.0647,0.1275,-0.1577,0.1987,0.0011,-0.0072,-0.0524,0.0013,1.7522,0.7847,0.382,0.2784,0.1015
3.8982,2.6349,2.8819,2.6423,-0.4383,-0.0074,0.1186,1.1936,0.7916,9.1341,2.9077,2.1806,8.4617,3.3869
11.9733,10.4214,12.5095,18.0232,1.9934,-0.027,0.1088,1.5233,0.9109,25.0091,5.0999,3.2425,12.2713,5.8967
9.7305,5.9309,9.8496,15.6163,2.6626,-0.0385,0.1215,-0.4078,-0.1809,23.4622,3.4262,-1.0365,9.0614,3.1992
0.816,-4.9396,-0.8806,-0.3579,0.1248,-0.0307,0.1302,-1.8539,-0.8604,9.5039,0.8546,-4.7554,5.0425,-0.5659
-3.8776,-7.7823,-6.3159,-10.0294,-3.8569,-0.0039,0.1158,-0.4151,0.1315,-1.5015,0.172,-2.7927,4.6546,-0.6526
-1.8492,-1.4351,-2.9627,-4.8053,-4.9719,0.0196,0.1099,1.1018,0.9516,-6.4366,-1.4755,-0.7585,0.3095,-0.2866
-0.1868,1.8555,0.4782,3.7265,-2.6582,0.0151,0.1319,0.1008,0.0614,-11.6723,-5.6068,-3.3717,-9.4792,-2.9248
-2.816,-3.5305,-1.6523,4.5184,-1.7061,-0.0154,0.1442,-0.8792,-0.8252,-17.2026,-8.3984,-5.8762,-11.1613,-4.8232
-4.2667,-8.6463,-4.1208,1.7696,-4.1187,-0.0441,0.1173,0.8505,0.0863,-16.3517,-6.9404,-3.3781,1.2341,-1.6835
0.5308,-5.1845,-0.8963,2.5653,-4.4849,-0.0483,0.0858,2.925,1.37,-6.8793,-2.5219,1.9545,12.3563,3.7219
6.2488,1.7829,4.3063,3.5283,0.8133,-0.029,0.0915,2.0006,0.9304,5.2799,2.6363,5.6944,8.4245,5.5183
4.9279,3.1338,3.9431,-1.1112,5.4898,-0.0018,0.1173,-0.4422,-0.3087,12.5875,6.6237,6.0094,-0.4684,3.1486
0.2093,0.7772,-0.2307,-6.4588,3.1784,0.0155,0.1238,-0.5615,-0.0655,14.8657,7.9472,4.1882,3.6619,1.9496
2.5869,3.9928,1.2626,-2.2856,-0.9309,0.012,0.1159,1.8197,1.4828,20.0102,7.9868,3.7719,18.8947,5.4605
11.4211,12.8238,9.7897,9.9582,0.3253,-0.0028,0.119,3.6056,2.3878,31.429,9.6592,6.4824,28.1922,10.2991
14.4558,15.4063,14.2103,15.8612,2.7689,-0.0093,0.1221,3.1497,2.0435,37.605,11.3722,8.3202,23.7464,10.4605
6.8761,5.6546,7.5431,8.4493,0.3453,-0.0089,0.1033,1.2446,1.037,24.371,7.6575,4.4706,10.8059,4.7628
-1.6254,-5.3882,-1.6654,-0.8735,-2.2259,-0.015,0.0811,-0.6849,-0.2656,-1.7308,-1.1566,-2.1146,-3.0788,-1.751
-2.5137,-4.6573,-2.9825,-1.1198,0.5034,-0.0161,0.0805,-1.2965,-1.104,-15.8875,-6.3032,-3.9675,-9.7292,-3.5433
0.2503,3.5318,0.1893,0.9848,3.7779,0.0071,0.0837,-0.5419,-0.7184,-7.5197,-2.8335,-1.0239,-4.4416,-1.0119
-0.1272,5.1559,-0.7256,-3.4205,2.2102,0.0309,0.0696,-0.1522,0.0082,4.2905,2.0102,-0.2917,3.9591,0.6132
-2.3817,-1.9802,-4.0228,-6.7642,-1.9072,0.0153,0.0585,-0.5739,-0.0094,-0.2815,-0.1772,-3.2492,2.9677,-0.9299
-2.4438,-7.6711,-3.3258,-0.6469,-5.1453,-0.0244,0.0719,0.0346,0.0215,-13.5175,-5.9879,-4.0589,-4.0818,-2.3915
-1.3873,-6.3785,-0.6391,5.0049,-6.5549,-0.0317,0.0936,1.7195,0.8035,-16.7926,-6.6613,-0.7379,-5.5302,-1.3492
-1.4531,-2.2598,-1.2033,-0.5849,-4.9508,0.0007,0.105,2.1516,1.2785,-8.4293,-1.5601,2.3539,-0.151,0.6912
0.2688,1.2062,-1.8627,-7.6342,-1.0596,0.0206,0.1091,1.3836,1.0349,3.4232,3.8045,3.5453,7.5955,3.144
7.2803,5.48,3.3649,-3.2103,1.7815,0.0023,0.1022,1.6803,1.2026,17.7016,7.7565,5.8921,16.6864,7.4807
14.6551,9.2464,10.3097,5.2561,2.8982,-0.0212,0.0741,2.4095,1.6308,30.338,10.8115,8.9483,21.6934,11.2064
12.5611,6.7603,9.1734,4.8319,3.8189,-0.0232,0.045,1.0346,0.7754,26.4945,9.2397,7.0782,14.0267,8.4024
1.613,-0.5711,1.1418,0.7646,3.4498,-0.0156,0.0496,-1.367,-0.9092,5.0334,1.2225,-0.4954,-1.059,-0.0844
-4.9689,-1.8275,-2.0314,4.4212,0.8931,-0.0058,0.0776,-1.5095,-1.1781,-8.6019,-5.2277,-5.8139,-7.2487,-5.1274
-1.002,5.6994,2.7639,10.4039,-0.5162,0.0143,0.0827,0.0739,0.0264,2.7372,-2.1061,-3.7726,-0.6138,-2.4576
3.1331,9.4524,5.1205,6.4382,1.7216,0.03,0.0533,0.0741,0.4022,19.8921,5.4591,0.3661,6.3708,1.329
-0.9329,1.8187,-0.4126,-4.1305,4.2282,0.0168,0.0272,-1.5277,-0.6387,16.9047,6.843,0.7487,4.7035,0.3774
-6.4215,-8.1394,-6.2025,-8.7851,2.2559,-0.0126,0.0287,-1.771,-1.1645,-2.4687,1.0761,-0.871,-1.8312,-2.3506
-6.2002,-11.3633,-6.4809,-5.9719,-3.9113,-0.0252,0.038,-0.0869,-0.2466,-18.9437,-5.3259,-1.6387,-7.2059,-3.049
-4.881,-10.3726,-5.2705,-2.7488,-9.667,-0.0147,0.0342,1.4251,0.8499,-27.1786,-9.1423,-2.4681,-10.8782,-3.4273
-6.754,-8.6592,-5.5422,-1.0383,-10.9585,0.0004,0.0284,1.9846,1.1666,-30.9958,-10.5506,-2.901,-12.7731,-4.5802
-5.8048,-4.0338,-3.7447,1.0409,-6.8786,0.0041,0.0381,2.3617,1.0969,-26.1265,-8.2073,-0.3207,-8.4143,-2.8348
2.7719,3.8345,1.6376,1.9528,0.4919,-0.005,0.0564,2.3336,0.942,-6.6205,-1.2814,3.8768,5.3246,3.5536
11.2294,9.567,5.6758,-0.127,6.611,-0.0123,0.0638,1.1656,0.5034,18.5476,6.5723,4.9726,20.8117,9.1719
9.5374,8.6003,4.6495,-2.0319,7.0142,-0.0041,0.0537,-0.3036,0.0307,30.4643,9.9844,2.5627,23.5794,7.9553
1.782,4.1704,2.635,0.9868,2.758,0.0107,0.0346,-0.5317,0.0652,24.373,8.3004,1.5072,10.6507,2.2839
0.7845,4.0187,5.3155,7.6777,0.4971,0.0142,0.0124,0.2149,0.3974,16.5572,6.1438,3.9692,-2.7575,-0.0732
7.513,8.2644,9.6225,10.4574,2.9775,0.0062,-0.0126,0.2234,0.2948,18.9307,6.2189,5.3042,-2.5347,2.513
9.4524,7.7212,7.4015,5.3299,4.5461,-0.0033,-0.0328,-0.8471,-0.2883,20.4905,5.2473,1.2087,5.9695,3.8034
1.3131,-0.8094,-1.0664,-2.1498,1.0777,-0.0093,-0.0357,-1.5426,-0.6943,7.5763,0.4131,-4.6782,7.1173,0.1881
-7.5368,-8.5102,-7.1606,-5.7349,-3.2805,-0.0054,-0.0251,-1.1806,-0.6454,-12.5265,-4.8898,-5.7956,-3.994,-4.5653
-9.9579,-9.7126,-7.8459,-7.001,-4.6078,0.0109,-0.0177,-0.6954,-0.4739,-25.2465,-6.9699,-2.9373,-17.6875,-6.7516
-10.1647,-9.809,-8.344,-8.8032,-5.1773,0.0207,-0.0148,-0.6992,-0.4546,-30.5385,-8.0985,-2.5557,-22.8253,-7.4725
-11.046,-11.6377,-9.8194,-7.7788,-6.0368,0.0031,-0.0062,-0.5689,-0.4954,-32.3728,-10.2634,-5.3868,-16.6076,-7.3746
-7.4986,-8.1035,-6.4334,-0.9283,-3.4716,-0.0234,0.001,0.2582,-0.3132,-23.2097,-8.8245,-4.7433,-3.8684,-3.974
0.9058,2.968,1.9249,6.0682,2.6754,-0.0199,-0.0107,1.1927,0.1437,-0.9421,-0.8616,1.6393,6.9946,2.0392
4.8721,9.8147,5.7652,5.1671,6.2248,0.0073,-0.0355,1.1622,0.3892,15.2741,6.3368,6.2385,9.9616,4.9089
0.8343,4.7172,1.0851,-1.5181,4.2234,0.0134,-0.0487,0.2121,0.0526,10.6271,5.142,3.4231,7.4424,2.5849
-1.6933,-0.9008,-2.4965,-3.3546,1.6737,-0.004,-0.0448,-0.37,-0.3383,0.3061,0.1821,-1.1644,5.7868,0.3815
3.6687,5.0774,2.7965,3.255,3.0516,-0.0011,-0.045,-0.1049,-0.201,5.0133,0.4925,-0.2774,4.7618,1.7677
9.1181,13.6654,9.5307,9.0871,5.4337,0.0253,-0.0643,-0.1322,0.0113,17.4618,4.7786,3.046,0.6063,3.0298
6.4052,9.967,7.5675,6.352,3.9515,0.029,-0.0899,-0.9439,-0.2296,17.9701,5.3366,2.0187,-3.3302,1.0532
-0.1807,-1.7869,0.1115,-0.2431,-0.7545,0.0008,-0.1009,-1.3175,-0.4177,6.9936,1.3743,-2.2165,-1.5765,-1.3978
-3.3731,-7.9952,-4.1104,-3.5958,-4.3736,-0.0173,-0.0911,-0.7704,-0.1355,-1.5797,-1.7489,-4.3231,1.8761,-1.8943
-4.5687,-8.4459,-5.198,-5.4693,-4.6983,-0.0104,-0.071,-0.5991,-0.065,-5.5716,-2.2848,-3.7537,-0.4968,-2.3643
-7.7176,-10.8695,-7.5742,-9.0888,-2.6626,-0.0079,-0.0577,-1.2916,-0.7109,-12.9258,-3.0663,-2.7655,-7.6458,-4.1713
-10.8782,-13.9481,-9.6305,-10.0885,-0.6743,-0.0204,-0.063,-1.4511,-1.2877,-24.0711,-5.5488,-1.5797,-13.6374,-5.6378
-9.9108,-11.303,-7.1193,-4.0099,-1.2383,-0.0231,-0.0838,-0.1673,-0.8006,-29.2879,-7.6185,0.0967,-15.6812,-5.2754
-4.3406,-3.8831,-1.1416,4.0015,-3.7836,-0.0079,-0.1067,1.4644,0.4452,-21.1333,-6.3729,1.4789,-12.1506,-2.8776
2.4153,2.2422,3.0606,5.2265,-3.4595,0.0033,-0.1187,1.6279,0.9987,-4.3379,-1.9262,1.7251,-2.4714,0.8373
5.6483,4.4303,2.8327,0.1521,2.1684,-0.0013,-0.1155,-0.0432,0.0663,8.8511,2.1386,0.4016,7.9122,3.3815
3.9398,3.9755,0.8545,-2.2889,7.3117,-0.0104,-0.1122,-1.6758,-1.1569,12.1691,3.0169,-1.5296,11.5071,2.8308
1.3544,2.6919,0.8077,1.1551,5.3024,-0.0102,-0.1315,-1.32,-0.9811,8.3306,1.4682,-1.7813,7.1657,0.9222
1.6488,2.1125,2.1579,3.4142,-0.8773,0.0038,-0.1638,0.2471,0.2303,1.2391,-0.4703,-0.0687,-0.6988,0.1747
2.3983,2.4306,1.891,0.1154,-3.1506,0.0232,-0.1755,0.6949,0.695,-4.7138,-1.3243,1.1663,-6.8774,-0.0267
-0.8003,1.0479,-0.4616,-3.2868,-0.7318,0.0287,-0.1696,-0.4414,-0.0196,-3.1583,0.0019,0.5523,-7.9504,-1.4971
-6.4146,-3.4417,-2.7323,-2.3602,0.6172,0.014,-0.1841,-1.6564,-0.7601,4.962,2.5581,-0.9027,-5.238,-3.7496
-8.0944,-6.2865,-3.1096,-0.3928,-0.6707,0.0007,-0.2117,-1.8371,-0.7852,8.924,3.1749,-1.9181,-3.0748,-4.4496
-3.9436,-2.817,-1.622,-0.2263,-0.8357,0.0044,-0.1643,-1.0821,-0.4204,3.7404,0.8825,-1.9418,-2.1246,-2.6146
-0.1433,1.3531,-0.6776,-0.6227,0.8793,0.0065,0.0207,-0.3047,-0.2765,-4.216,-1.8976,-1.6024,-1.1813,-0.6633
-2.6967,-3.3536,-3.3617,-2.3622,0.6265,-0.0102,0.1871,-0.629,-0.6924,-12.546,-4.4686,-2.7728,-4.6059,-2.2073
-9.5016,-14.4885,-8.9592,-6.7983,-3.2727,-0.0262,0.0373,-1.899,-1.388,-26.7038,-9.0278,-5.9855,-16.0622,-7.1831
-13.7678,-19.2675,-12.3669,-9.3421,-7.2692,-0.0189,-0.3621,-2.2459,-1.5238,-42.5401,-14.5946,-8.5307,-25.9832,-10.8055
-11.3405,-12.0047,-9.7947,-5.5504,-6.8224,-0.002,-0.4731,-0.6131,-0.7153,-43.0108,-15.0933,-6.9465,-20.4835,-8.4989
-2.6044,0.3306,-2.5694,-0.175,-1.4407,0.0038,-0.1033,1.4603,0.3699,-20.7916,-6.8504,-0.5463,-2.6108,-0.7973
8.1906,9.0267,5.2337,0.9482,4.6806,0.0019,0.1927,2.0992,0.9447,9.2683,5.0933,7.3339,11.2223,7.2081
14.4994,11.5608,10.1609,1.6547,7.2056,-0.0025,0.0111,1.4096,0.8719,27.2521,11.5599,10.8495,14.1357,10.4364
12.83,9.6612,10.588,6.5048,6.3843,-0.0133,-0.3276,0.2048,0.23,28.0782,9.3446,6.9783,11.654,7.7544
6.3938,5.7736,7.1595,9.4649,5.0576,-0.0186,-0.461,-1.2623,-0.7287,20.1224,4.0173,0.1242,6.9355,2.3758
0.3403,1.3364,2.1398,3.7507,3.4898,-0.0028,-0.4332,-2.3017,-1.2169,12.0033,2.0068,-2.6366,-0.22,-1.5464
-4.5396,-4.021,-2.7551,-5.3746,0.1814,0.0169,-0.3871,-2.2075,-0.8933,4.5139,2.316,-1.379,-6.7129,-3.3796
-10.1218,-10.5347,-7.2621,-8.6664,-4.0753,0.0148,-0.4964,-1.9956,-0.7345,-7.4112,-1.2119,-2.9674,-11.4317,-6.1407
-15.2125,-15.3776,-10.7293,-6.0096,-6.6921,0.0009,-0.8474,-2.8705,-1.4838,-24.3586,-9.7444,-9.5336,-17.5395,-10.8348
-15.915,-14.9746,-11.4347,-3.2388,-6.0926,-0.0042,-0.9468,-3.5539,-2.1941,-36.4306,-15.9573,-13.8229,-22.4195,-13.227
-12.2088,-10.9201,-9.7801,-3.2878,-2.9553,-0.0078,-0.2196,-2.2188,-1.7899,-36.6506,-14.3816,-10.1586,-19.4151,-10.0849
-9.3741,-8.8714,-9.0711,-5.4202,-0.6144,-0.018,0.7382,0.1021,-0.8161,-34.3169,-10.2579,-3.6578,-12.4198,-5.4141
-9.3392,-9.3751,-9.3254,-6.6724,-2.0283,-0.0177,0.6783,1.1635,-0.2029,-36.5187,-9.916,-1.3599,-10.8046,-4.1111
-6.3553,-5.9893,-5.2207,-3.398,-4.2094,0.0006,-0.3297,0.9825,0.223,-27.4331,-8.1007,-0.4764,-10.3635,-3.2241
2.3786,3.0463,3.9318,2.8024,-0.9476,0.0126,-0.8894,0.6946,0.6229,4.6934,2.1358,4.3261,-0.6011,1.8156
9.0743,9.0008,9.2456,4.6489,6.3797,0.0024,-0.4198,-0.0157,0.2851,34.2206,12.7318,8.2379,12.0233,6.7719
6.5285,4.986,4.83,0.0648,8.3331,-0.0117,0.1434,-1.449,-0.7704,28.7948,10.3637,3.6753,11.5186,4.701
-1.271,-4.0578,-3.0308,-4.046,1.3344,-0.0119,0.0523,-2.1615,-1.2075,-0.5571,-1.5651,-5.0384,-0.845,-2.0766
-6.4854,-9.1309,-6.0016,-3.1853,-6.1506,-0.0054,-0.1868,-1.1874,-0.4774,-16.1404,-7.3649,-7.2851,-8.6747,-5.6385
-6.0946,-6.7088,-3.6388,-0.6262,-5.8102,-0.0007,0.0622,0.2946,0.4019,-6.4199,-2.137,-2.0123,-4.7417,-3.4338
-0.7133,0.6465,0.6123,0.7406,-0.3783,0.0046,0.4091,0.8912,0.6171,8.0818,4.113,2.7487,3.0522,0.9563
5.1579,5.6802,3.6493,1.4462,2.5891,0.0065,0.0776,0.3138,0.2187,8.8838,3.077,2.1944,4.482,3.0052
4.3653,2.5364,2.7519,1.0937,1.5981,0.0004,-0.842,-1.155,-0.6428,-2.3714,-2.4995,-1.1166,-3.1537,0.4971
-2.4556,-4.1221,-0.779,-0.0969,0.4496,-0.005,-1.3574,-2.308,-1.4144,-12.0803,-5.4477,-2.4768,-12.453,-3.8219
-5.6542,-4.9171,-1.9065,0.3975,1.0034,-0.0046,-0.7411,-1.5822,-1.1633,-10.5765,-3.2354,-0.4258,-12.6802,-4.3881
-2.0072,-0.4923,-0.065,1.9463,2.0621,-0.006,0.4527,0.1723,-0.2347,-1.9701,0.5774,1.8421,-4.2443,-1.0128
1.0049,1.3135,0.4773,0.9903,2.7996,-0.0083,0.8334,0.1354,-0.1692,3.3302,1.7153,0.6384,1.1546,0.6024
-0.1082,-0.4823,-0.7182,-1.4875,3.1441,-0.0039,-0.0638,-1.9026,-1.1246,3.3517,0.1557,-2.8536,-0.7241,-1.2426
-0.6983,-0.7293,-0.6529,-1.5947,2.5023,0.0029,-1.0246,-2.8851,-1.5237,1.876,-1.6397,-4.5742,-2.0452,-2.2509
-0.5702,0.751,-0.5137,-0.2848,0.545,0.0083,-0.8752,-1.4907,-0.7818,-3.181,-3.1652,-3.8129,-1.0759,-1.5999
-5.5062,-1.6034,-3.8719,-1.3343,-1.9362,0.0151,-0.1298,-0.0907,-0.1935,-14.7948,-5.3465,-3.209,-6.1053,-3.6336
-13.9367,-9.6051,-9.2101,-4.372,-3.7491,0.0104,0.1079,-0.5644,-0.642,-26.4531,-7.6572,-4.002,-16.1261,-8.2852
-15.9706,-16.6403,-11.0483,-5.5818,-4.4478,-0.0191,-0.1208,-1.351,-1.1676,-28.8421,-8.5398,-4.5882,-17.6602,-9.2889
-8.8957,-15.2265,-7.5127,-3.4438,-4.8852,-0.0451,-0.1836,-0.2979,-0.5137,-22.1242,-7.2984,-2.9932,-7.4223,-4.4577
-1.5709,-7.6086,-2.7518,-1.2246,-5.7267,-0.0312,-0.1503,1.6388,0.8231,-14.539,-4.7875,0.262,0.8526,0.5015
0.1632,-2.9145,-0.9675,-2.3924,-5.2535,-0.0016,-0.399,1.7827,1.1404,-10.828,-2.6921,2.2787,-0.6496,1.3285
0.566,-3.204,-0.6105,-3.7761,-1.4086,-0.0044,-0.7289,-0.1852,-0.02,-6.2577,-1.4199,1.4898,-3.2623,0.501
2.1022,-2.1672,1.2563,-0.0053,3.7018,-0.0233,-0.7109,-2.171,-1.3617,2.6583,-0.2895,-1.0032,-1.891,-0.1141
-0.5368,0.7233,1.4085,4.3713,5.1669,-0.0097,-0.3279,-2.8605,-1.817,5.9835,-0.3829,-3.9627,-3.9469,-2.8878
-7.495,-0.6921,-3.5292,0.3366,1.9409,0.0219,0.1727,-2.1688,-1.3431,-3.9007,-2.1843,-5.3111,-9.4143,-6.3237
-7.7165,-3.7741,-6.3071,-6.8828,-1.0239,0.0212,0.5251,-0.1701,-0.1543,-9.7156,-1.1367,-1.2989,-5.906,-3.6369
4.3249,1.2521,1.7709,-3.329,0.8763,-0.0066,0.452,1.7939,1.0591,8.6755,5.9446,6.7654,7.7236,5.2612
16.691,11.9316,13.4202,8.357,4.65,-0.0142,-0.0114,1.7659,1.3197,35.3375,12.3816,10.0774,16.668,10.8414
15.5414,14.7076,13.5125,10.9819,2.7594,0.0113,-0.3354,0.5288,0.9742,36.4486,9.768,4.1136,14.1903,7.6903
4.3179,6.7189,2.5099,1.2993,-4.6269,0.0371,-0.1937,0.3501,1.0477,11.9574,1.1618,-3.9902,8.1557,1.3161
-2.6947,-0.5704,-4.3184,-5.1593,-7.1773,0.0323,0.0197,0.659,0.9802,-5.6108,-3.2691,-5.4835,3.6953,-1.4792
-0.4529,-0.5538,-0.2835,-0.1027,0.0446,-0.0011,-0.0746,-0.1801,-0.1263,-1.2494,-0.5022,-0.2888,-0.9415,-0.3969
-3.6489,-1.5985,-2.9055,-1.5143,-0.5275,0.0032,0.1014,0.0189,-0.1223,-6.4626,-2.0963,-1.6833,-0.6829,-1.6484
-3.404,5.3215,-1.2172,2.8787,-1.9059,0.0224,0.1059,2.144,1.2551,4.6271,0.9217,-0.8276,14.8696,1.2831
-7.9071,1.8615,-5.1219,0.1393,-4.2133,0.0321,0.1019,1.2395,0.8199,-4.89,-3.05,-5.2432,8.7229,-2.5315
-11.7675,-6.6208,-9.2639,-4.9143,-6.4113,0.0236,0.1092,-0.3101,-0.0772,-20.3926,-7.8254,-7.936,-6.5525,-7.051
-8.5567,-8.4647,-6.3139,-4.2704,-5.5853,0.0016,0.1449,0.6165,0.3631,-15.6994,-3.8554,-1.2242,-7.4183,-4.0282
-1.9008,-3.0692,0.3282,-0.2845,-0.0792,-0.018,0.146,2.2334,1.096,6.154,6.0851,8.7761,5.6345,3.2918
1.3037,2.2623,2.6803,0.0834,7.412,-0.0239,0.0462,1.4238,0.3737,20.8958,11.1783,10.6073,16.403,6.5881
1.7836,6.2696,1.5218,-1.1635,10.8328,-0.0078,-0.0092,-0.6429,-0.863,19.3804,8.036,4.0234,16.5316,4.6045
4.3587,12.1785,3.4678,2.6228,6.794,0.0304,0.1835,-0.7846,-0.5255,13.2214,2.9938,-1.6008,8.0789,1.8524
8.9531,17.0861,8.4719,9.1235,0.4369,0.0596,0.3845,0.5952,0.8266,12.0806,1.3167,-1.6335,-1.0522,1.2586
11.1217,14.7627,9.9246,10.0533,0.3484,0.0389,0.0906,0.3955,0.7107,13.5777,1.5858,-0.477,-1.0011,2.3494
8.0993,5.7476,5.1555,4.4652,5.033,-0.0162,-0.5363,-1.604,-0.9715,10.9064,0.3016,-2.466,7.1796,2.7835
0.4101,-4.505,-2.456,-1.9787,3.5006,-0.0422,-0.6934,-2.3489,-1.6517,-1.4814,-3.6675,-5.9482,8.3513,0.0772
-9.9385,-13.4253,-10.17,-7.4878,-6.359,-0.0196,-0.1959,-0.8917,-0.5612,-23.6753,-9.1877,-7.8439,-4.7077,-5.6397
-19.4506,-20.1574,-16.9776,-13.4458,-12.7466,0.0062,0.2525,0.1933,0.1322,-43.9701,-13.2348,-7.9587,-18.3515,-10.6896
-23.3276,-22.0593,-19.5119,-16.2459,-9.0252,0.0015,0.2957,-0.4219,-0.5919,-46.2029,-12.3256,-6.6684,-19.375,-11.6248
-19.4359,-17.9169,-14.5657,-10.2704,-3.3876,-0.0159,0.3147,-0.8071,-1.0188,-29.4598,-6.8641,-3.5399,-13.0128,-8.9108
-11.2725,-9.8138,-5.4396,1.3284,-3.4178,-0.017,0.434,0.449,-0.0143,-9.7649,-1.7302,-0.1449,-7.4197,-5.1507
-4.4322,-0.5176,0.4071,7.6932,-5.0327,0.0036,0.3336,1.9189,1.1737,0.0314,-0.3033,0.429,-0.098,-1.7865
-0.9628,6.8075,0.5688,4.0992,-2.1337,0.0287,0.1343,1.8477,1.1409,1.4164,-0.5729,-1.1186,8.1424,0.6819
1.5811,9.7167,0.2076,-2.009,4.0559,0.0361,0.2767,0.6811,0.2559,3.5274,1.6274,0.1892,8.6195,2.2662
6.2465,10.1284,4.075,-1.9917,8.4599,0.0223,0.5036,0.061,-0.1895,12.7289,6.8284,5.6342,3.9857,4.3711
12.1062,10.8501,9.3688,2.7139,7.6802,0.0038,0.1389,0.4031,0.2522,24.0056,9.9824,8.6576,6.8653,7.3871
14.2111,9.8148,9.8643,5.1214,2.287,-0.0057,-0.616,0.6724,0.8004,23.7377,6.2888,4.0872,14.6627,8.1798
9.6344,5.5071,5.126,3.7526,-2.5641,-0.0051,-0.8031,0.3442,0.679,8.9627,-1.1248,-2.8871,12.7119,4.5374
1.9008,2.2932,0.3987,2.2272,-1.8258,0.0038,-0.1516,-0.0274,0.0476,-5.3924,-4.5238,-4.4246,1.3458,-0.4413
-3.8834,1.8826,-2.105,0.6109,2.4619,0.0155,0.5634,-0.4548,-0.6322,-8.5861,-2.6897,-2.1754,-6.8244,-3.2801
-8.2284,-2.0834,-5.7335,-4.3414,3.2337,0.019,0.6362,-1.6381,-1.2874,-9.5867,-2.0032,-3.2976,-10.027,-5.5556
-14.4228,-12.6946,-12.1485,-10.8546,-2.0878,0.0084,0.2014,-2.9417,-1.7435,-20.0787,-6.3639,-8.475,-14.3189,-9.5045
-19.8296,-21.0552,-16.7389,-12.5759,-8.4986,-0.0061,-0.1581,-2.4652,-1.4163,-35.2764,-12.1706,-11.3824,-17.555,-12.2436
-16.8327,-16.6179,-13.6513,-7.5981,-9.8538,-0.007,-0.1594,0.208,-0.1249,-40.0909,-13.309,-7.3356,-13.7883,-9.1001
-4.1939,-2.2488,-3.2945,-0.1055,-5.0809,0.0017,-0.0181,2.8895,1.231,-26.0383,-7.457,1.6297,-4.3463,-0.7211
8.0259,7.5288,6.5778,5.1941,1.6269,-0.0044,-0.0027,2.9681,1.3558,-0.5458,1.5897,8.4067,3.4645,6.0988
9.5095,4.8382,8.2585,5.4927,4.8129,-0.0225,-0.067,0.4254,0.1517,16.7327,6.6377,7.3854,3.3707,5.5422
3.2004,-0.966,3.256,1.7275,3.0172,-0.0163,-0.0566,-1.7052,-0.8189,14.1501,4.561,1.136,-1.9448,0.4306
0.8788,1.8416,0.4879,-0.3207,0.6866,0.0124,0.0034,-1.0478,-0.3887,4.6549,0.5851,-2.2955,-0.9559,-0.8695
5.3718,8.7123,3.2068,2.0845,2.1911,0.0167,0.0204,0.6247,0.389,6.8136,1.0377,-0.3024,8.9753,3.2084
7.6512,7.662,4.7544,2.9919,4.3026,-0.0066,0.0054,0.442,0.1804,13.9377,3.6053,1.5183,13.4372,5.2393
3.5605,-0.1962,0.9771,-1.4376,0.4857,-0.0111,0.0008,-0.4138,-0.0832,6.2987,1.4979,-0.4653,4.6965,1.9162
-0.5643,-4.2551,-2.9602,-4.7289,-7.1479,0.0081,0.0009,0.7562,0.8349,-12.0674,-4.3953,-2.5143,-3.9264,-1.0462
-1.9846,-2.4642,-3.0323,-2.0344,-9.0376,0.0158,0.0028,2.2455,1.5453,-18.8614,-6.6385,-1.8514,-3.3784,-1.0721
-5.3002,-1.5906,-2.9656,0.4766,-2.7349,0.0119,0.0193,0.4523,0.1724,-11.1423,-3.9026,-2.0699,-4.63,-3.0939
-9.3836,-3.8597,-5.1341,-2.3347,3.6669,0.0132,0.0298,-3.0673,-1.997,-5.8465,-2.0079,-4.8994,-12.2935,-7.2319
-6.7803,-4.2456,-4.8014,-4.0455,4.2144,0.0036,0.0061,-3.182,-2.0781,-6.1098,-2.2242,-4.8097,-10.5039,-5.8004
1.5845,0.1391,0.6975,1.4315,1.7156,-0.0217,-0.0269,0.6122,0.0482,0.3867,0.0304,1.2974,6.4751,2.2724
5.6379,4.7801,5.2372,6.8275,0.6257,-0.0257,-0.028,3.1644,1.5787,11.5185,4.4324,6.7372,17.6533,7.1561
2.1626,4.4057,3.362,3.0276,1.1001,0.0045,-0.0076,1.5288,0.9221,12.6948,5.6092,5.214,8.5196,3.6102
-0.5363,1.1902,-0.0013,-3.7925,1.2211,0.0261,0.0001,-1.0895,-0.2891,7.5912,3.9139,1.0126,-4.3593,-0.9171
3.5454,1.1661,2.4336,-1.732,0.5557,0.0102,-0.0022,-1.0449,-0.1154,13.6467,4.8853,0.9877,-0.894,0.9153
9.5418,4.9662,8.06,6.1958,0.3891,-0.0127,0.0059,0.4939,0.8196,28.2539,8.4962,3.6669,11.5812,5.563
10.1224,7.4356,8.8738,7.4906,1.4777,-0.0082,0.0148,0.6772,0.8659,30.3144,8.9994,3.8771,13.8646,6.1382
4.7297,4.1546,3.4217,0.7714,2.2897,0.0049,0.0026,-0.388,-0.0023,13.5481,4.3528,1.3489,4.5897,2.4514
-2.0649,-3.6908,-2.815,-4.3643,0.9413,-0.0054,-0.0205,-1.0118,-0.7051,-6.6129,-1.6734,-1.1751,-4.4939,-1.5613
-5.8156,-9.0858,-5.1093,-3.37,-1.4449,-0.0217,-0.0233,-0.9909,-0.8534,-16.4257,-5.2837,-2.6543,-9.5079,-4.0248
-5.2461,-7.0722,-3.8045,-0.8223,-2.0973,-0.0122,-0.0061,-0.9635,-0.7673,-16.9145,-6.0935,-3.3197,-12.5735,-4.8227
-3.1092,-2.8286,-2.8247,-1.2821,-1.1751,0.0037,-0.0041,-0.7992,-0.6323,-16.2546,-6.1049,-3.5121,-11.0051,-3.8564
-2.6681,-3.7319,-4.1267,-3.2413,-1.5532,-0.007,-0.0259,-0.1439,-0.3694,-18.9725,-7.0447,-3.6047,-4.7841,-2.1894
-3.4763,-6.6398,-4.8216,-2.4129,-3.5834,-0.0234,-0.0332,0.6624,0.0235,-21.8867,-8.0357,-3.1344,-2.4393,-1.6921
-3.0398,-4.0148,-2.184,1.4611,-3.558,-0.0119,-0.0048,0.9702,0.2862,-17.3342,-6.1035,-1.0777,-5.9583,-1.9964
-0.2541,3.2006,1.9976,3.9024,0.8931,0.0108,0.0212,0.63,0.1982,-1.5877,0.1028,2.2888,-4.2085,-0.3813
4.2991,9.0406,5.0083,2.6703,6.5922,0.016,0.0057,0.0922,-0.017,18.7683,7.5805,5.0253,7.441,3.7477
8.5507,11.5992,6.8893,1.5522,8.7591,0.011,-0.0299,-0.1806,-0.0031,32.0297,11.6463,5.6182,17.3549,7.0269
10.2351,11.8039,8.5974,4.3887,7.1616,0.0069,-0.0409,-0.0834,0.2156,34.8978,11.5954,4.9915,17.2921,7.1517
9.9039,10.5836,10.0419,8.8999,5.1342,-0.0009,-0.0229,0.2293,0.447,35.2068,11.087,5.1071,14.2638,6.2241
9.6335,9.8979,10.5828,10.1327,4.377,-0.0025,-0.0026,0.2414,0.5441,37.783,11.9416,5.436,13.5018,5.9251
8.342,9.4204,9.0308,6.9499,3.9204,0.0149,0.0028,-0.7715,0.1501,35.0101,10.9679,3.3109,7.6545,3.7881
3.0712,4.152,3.7723,1.2684,2.4602,0.0271,-0.0104,-2.5288,-0.8866,17.171,4.7969,-1.612,-6.8715,-1.746
-4.8128,-6.8607,-4.345,-5.1383,-0.6764,0.008,-0.0379,-3.1861,-1.6852,-12.1682,-4.7594,-5.9221,-18.981,-6.9019
-9.607,-15.0388,-10.3127,-9.1885,-5.2283,-0.0197,-0.0615,-1.397,-1.1071,-36.3902,-12.1353,-6.4968,-18.6046,-7.3951
-8.5567,-14.0163,-10.0782,-7.6779,-9.0476,-0.0245,-0.0596,1.375,0.4088,-41.9613,-13.6955,-4.1971,-10.6501,-4.3838
-4.8683,-8.7639,-5.9023,-2.8967,-8.6783,-0.0185,-0.0307,2.328,1.0943,-30.8878,-10.2776,-1.8483,-4.9326,-1.8205
-1.7032,-4.8921,-1.7881,0.4399,-2.7218,-0.0231,0.0041,1.0424,0.3091,-13.6263,-4.347,0.3741,-2.7407,-0.4446
2.4081,0.7529,3.1175,3.6073,5.165,-0.0252,0.0197,-0.2537,-0.5863,4.8839,2.5513,3.9665,-0.2229,1.7216
9.2433,10.753,10.2189,9.4179,9.0911,-0.0058,0.0085,-0.2017,-0.3665,23.5315,8.4771,7.1534,3.7598,4.8738
16.0145,18.7252,15.297,13.0562,8.1679,0.0175,-0.0144,0.1626,0.3395,36.1946,10.9398,6.5844,8.7851,7.3686
18.2136,17.8686,13.916,8.8889,7.2156,0.0139,-0.026,-0.3364,0.2793,37.7089,10.2438,3.4998,14.638,8.5102
14.4687,10.3656,8.4052,1.2264,8.4852,-0.0113,-0.0178,-1.3469,-0.5098,33.3526,9.6141,1.9378,18.3137,8.0665
6.767,3.1026,3.6703,-1.9711,8.5579,-0.0227,0.0003,-1.9687,-1.0485,29.7618,10.0459,2.1338,15.4135,5.17
-0.8791,-0.4753,1.0904,-0.1023,5.5817,-0.0098,0.0128,-1.8713,-0.9806,23.0666,8.5406,1.6765,6.2527,0.601
-3.5489,-0.8469,0.3628,2.4366,2.2185,0.0026,-0.0005,-1.1023,-0.6247,8.8036,3.5376,0.7875,-3.3307,-2.192
0.1397,0.6244,1.505,3.1023,-0.4409,0.0025,-0.0549,0.1948,0.0233,-4.7643,-1.5373,0.9467,-6.9367,-1.0642
4.5265,1.6835,2.5679,1.8137,-3.9973,0.004,-0.0993,1.3963,0.964,-7.466,-2.9945,1.0268,-3.5871,1.4246
3.2095,-0.2377,1.1716,0.1527,-6.7857,0.0084,-0.0303,1.3825,1.2937,-3.3173,-1.9616,-0.5637,-0.7012,0.9882
-2.1023,-4.1947,-1.2843,0.2878,-4.6349,0.0007,0.0985,-0.2886,0.1728,-2.5273,-1.6941,-2.6461,-5.5603,-2.646
-5.2376,-6.2128,-2.3405,1.339,1.7429,-0.0172,0.0293,-2.4103,-1.6273,-5.9067,-2.7557,-3.5641,-12.2489,-5.4337
-4.8406,-4.9773,-2.7013,0.4495,6.6059,-0.0284,-0.2586,-3.131,-2.4693,-7.685,-3.4496,-3.5217,-8.9055,-4.5092
-2.4358,-1.5507,-2.2738,-0.8774,6.7262,-0.0243,-0.3197,-1.8874,-1.7403,-4.1739,-2.1446,-2.2879,1.946,-1.0544
3.3936,4.8348,2.3992,1.8039,4.3618,-0.0048,0.0737,0.2059,-0.1366,6.708,2.228,1.6831,7.1114,2.8285
12.2409,12.6819,10.8712,7.6077,2.8504,0.0177,0.409,1.6131,1.2391,23.5086,8.6604,7.4262,5.0576,6.4315
17.0385,14.6524,15.4657,10.7542,2.9182,0.0153,0.2282,1.4129,1.4471,35.9168,12.5442,9.7023,5.3353,8.2769
12.2015,7.4708,10.8894,8.5569,3.5595,-0.0141,-0.116,-0.3594,0.2489,32.6333,9.7203,4.5824,8.6321,5.8401
2.8544,-0.5257,2.4086,3.7351,3.9649,-0.0297,-0.1621,-2.2638,-1.2382,17.1524,3.0411,-3.2099,7.047,0.5041
-0.1655,0.0904,-0.1037,0.8557,4.0167,-0.0102,-0.0428,-2.0687,-1.2786,7.0035,0.6585,-3.539,1.9574,-1.2071
6.2622,7.2483,5.3384,1.9532,4.1444,0.0108,0.0427,0.3291,0.2274,13.2131,5.5252,4.8143,3.2381,3.7879
13.8088,11.5424,10.5795,3.7516,4.7784,0.0046,0.143,1.7531,1.227,26.5729,10.9592,10.2294,11.1463,9.2915
14.7592,9.7031,9.7038,2.7569,5.5855,-0.0098,0.104,0.1802,0.4431,31.388,10.4254,5.6915,15.1658,8.8109
11.6585,7.5539,7.3454,2.6833,5.7455,-0.0094,-0.2215,-1.7531,-0.6563,26.7468,6.5538,-0.2411,11.3789,5.1097
8.7432,8.0451,8.0056,7.5507,4.8923,-0.0039,-0.434,-1.3027,-0.563,21.1541,4.5921,0.4058,5.6513,3.0631
2.496,4.3525,5.8507,10.3335,3.276,-0.0087,-0.1605,-0.5363,-0.4186,12.2565,2.7142,1.3455,-0.8716,0.0613
-9.3832,-7.4823,-4.3446,2.1161,1.2149,-0.0156,0.2363,-2.0837,-1.5671,-8.2131,-3.2236,-4.1458,-12.0724,-6.9908
-18.2992,-17.3705,-14.6418,-10.6944,-1.404,-0.0088,0.253,-3.5584,-2.4849,-31.1715,-9.9544,-9.6671,-21.3299,-12.2777
-14.6055,-14.1353,-13.4359,-12.9015,-4.4944,0.0062,0.0083,-1.5123,-1.1033,-33.8497,-10.0101,-6.6979,-16.2279,-8.6712
-1.2677,-2.5577,-1.7972,-2.8309,-6.1238,0.009,-0.1069,2.0558,1.3584,-11.3918,-2.487,1.9892,-1.8824,0.5111
10.3495,5.0512,8.6992,5.895,-3.4574,-0.0023,-0.03,2.5642,1.9692,14.7088,5.7724,7.664,4.1944,6.2386
15.2874,8.6072,12.4268,7.0992,3.2069,-0.0083,0.0543,0.3686,0.6684,28.3671,9.7892,7.7534,3.2698,7.114
18.4437,17.2278,15.482,10.9074,9.9256,-0.0011,0.037,-0.1487,0.0677,38.5036,12.0296,7.4513,11.8469,9.1914
22.8567,28.849,21.7897,21.177,13.6427,0.0079,-0.026,1.5343,0.8227,53.1691,15.7427,10.265,25.4808,13.3246
23.0421,29.367,23.2858,22.998,13.9301,0.0115,0.0154,1.3192,0.792,57.6617,17.5776,11.4224,22.5165,12.8712
14.5633,14.4849,13.1143,8.4014,10.5964,0.0083,0.1985,-1.7226,-0.7391,38.4881,12.3832,5.3922,4.6415,5.7401
2.1299,-3.0723,-1.3054,-6.7229,4.5221,-0.0078,0.2735,-3.6452,-1.8926,7.8079,1.988,-4.107,-5.0175,-1.6806
-6.816,-11.5155,-9.1523,-8.9923,-0.2066,-0.0293,0.0074,-2.8226,-1.8177,-14.6529,-6.6869,-9.0979,-2.2414,-4.7966
-9.8722,-11.7393,-10.1034,-6.6709,-1.0658,-0.0301,-0.3412,-1.8465,-1.5779,-25.2473,-10.1163,-8.3833,-3.5667,-5.5979
-8.818,-9.5216,-8.7341,-7.4501,-1.6345,-0.0067,-0.3277,-1.6918,-1.35,-28.514,-9.9668,-6.2839,-12.5141,-6.2568
-6.2603,-7.3002,-5.5679,-4.3446,-4.5653,0.0064,-0.0915,-0.7513,-0.4511,-23.066,-7.8472,-4.2462,-15.4298,-5.6527
-3.6333,-5.01,-0.497,4.2951,-5.0952,-0.01,-0.1633,0.6116,0.4094,-8.0057,-3.1797,-0.4442,-7.4582,-2.8119
-0.5964,-2.3,3.4579,7.5646,0.1363,-0.0283,-0.4822,0.5857,0.2035,8.0461,3.0737,4.521,1.2899,0.9064
3.1653,1.3011,4.6679,3.041,5.1633,-0.0213,-0.3729,0.028,-0.1581,16.4258,7.5008,7.3757,4.9931,3.7971
6.8342,6.0347,5.5963,1.4651,4.637,-0.003,0.3672,0.9868,0.5896,20.5067,9.1179,7.3671,9.0815,5.8338
10.0427,10.9307,8.263,6.2606,3.0742,0.0032,1.0462,2.4311,1.5567,27.4027,10.4031,7.0029,15.283,7.6067
13.4469,14.3018,11.2364,8.7502,5.8289,0.0016,0.9233,1.8438,1.2132,34.7955,12.1531,7.3994,17.0164,8.8289
16.861,15.9198,12.8598,5.8996,9.5721,0.0063,0.0485,-0.244,0.0998,37.4488,12.4335,6.9874,14.1296,9.267
17.7541,16.1495,13.223,5.3,8.6218,0.0133,-0.8043,-1.2757,-0.2527,36.5189,10.4501,4.5682,13.3615,8.667
13.2031,12.9848,11.6547,9.7816,3.6531,0.0114,-0.8933,-1.0121,0.0384,31.6917,6.8583,0.6761,11.4251,5.3699
4.9522,5.553,7.0784,11.1008,-0.3733,0.0054,-0.3337,-1.1859,-0.1938,17.9382,2.2084,-2.7146,-0.3761,-0.5925
-0.3159,-0.8485,1.6071,3.3752,-0.481,0.0093,0.0056,-1.9497,-0.9075,-1.3328,-1.7971,-2.9491,-15.3165,-4.4588
0.536,-1.1942,-1.0366,-6.6305,1.8789,0.0205,-0.2524,-1.9796,-1.1282,-12.7253,-2.856,-0.027,-18.4468,-2.8808
2.6621,1.1915,-0.3748,-7.8306,2.8328,0.0194,-0.4248,-1.0825,-0.6611,-9.2268,-1.2099,2.0049,-9.7863,0.2792
1.7562,1.4523,1.5122,1.1163,0.8587,-0.0009,-0.0024,-0.028,0.006,3.8168,1.1862,0.7326,1.0192,0.8527
-4.4921,-3.4628,-3.4637,-2.712,-2.1583,0.0084,-0.0062,-0.2609,-0.1533,-10.3086,-3.1123,-1.8645,-6.5337,-2.9986
-6.6481,-2.3664,-3.1865,5.8209,-1.1365,-0.0223,0.5117,1.6966,0.3395,-10.4959,-4.2067,-1.7386,4.9763,-1.7173
-5.4578,0.1781,-2.2763,7.6293,1.9729,-0.0237,0.7662,1.3694,-0.1919,-14.9435,-5.939,-2.1163,1.366,-2.1481
-0.27,2.76,0.2027,3.1813,4.0134,-0.0013,0.3584,-0.181,-0.8559,-17.8756,-6.0822,-0.6984,-11.3537,-2.2279
6.0921,3.851,4.1494,-0.5633,1.5276,0.0139,-0.5182,-0.1778,-0.1232,-7.3955,-1.4855,3.7578,-11.8071,1.2052
9.7228,5.1254,7.5026,0.9487,-2.3183,0.0097,-0.9325,1.6608,1.6102,16.5522,6.6989,7.8676,7.116,6.8567
8.749,7.8666,7.8888,4.6099,-1.7432,0.0048,-0.4653,2.5351,2.2264,35.5973,12.1779,7.1704,25.0707,9.0856
4.2548,8.718,5.2002,5.3053,3.0125,0.0108,0.1711,0.4864,0.7141,34.8687,10.8419,1.9545,21.1459,4.8406
-0.8554,4.5139,1.7042,2.59,6.5304,0.0154,0.2904,-2.7747,-1.4444,22.0786,6.3171,-2.7062,1.8582,-1.9641
-4.3387,-2.0102,-0.7809,-0.5194,5.2138,0.0112,0.1119,-4.0724,-2.1812,11.7846,3.6692,-3.4252,-11.7789,-5.6756
-6.5334,-6.5456,-2.8769,-2.1168,-0.2289,0.0074,0.0589,-2.7506,-1.2812,3.2144,1.4266,-2.8414,-13.3359,-6.0607
-8.8991,-8.7563,-6.0728,-3.4583,-6.2205,0.0113,0.0785,-0.9408,-0.2359,-12.7026,-4.409,-4.8393,-12.7402,-6.6584
-11.198,-9.9648,-10.1194,-6.8823,-8.6188,0.0184,0.0077,-0.3675,-0.1841,-35.3921,-12.6268,-8.245,-17.2249,-8.447
-11.647,-10.6004,-12.6722,-10.7954,-6.4388,0.0147,-0.0657,-0.6098,-0.8108,-52.5487,-17.9862,-9.1754,-21.9975,-9.0467
-9.3136,-11.002,-11.2933,-9.7645,-2.8528,-0.0122,-0.037,-0.5679,-1.1701,-50.9465,-16.9093,-6.6931,-18.8095,-6.8418
-5.4736,-10.0178,-6.4319,-3.3442,-0.7624,-0.0417,0.0275,-0.1264,-0.8929,-30.8702,-10.317,-2.8853,-8.8275,-3.2411
-2.4482,-5.3337,-1.897,0.8075,-0.0615,-0.0307,0.0368,0.1703,-0.3259,-9.9279,-3.1701,0.0265,-2.3014,-0.9204
-0.5842,1.3499,-0.1555,-1.5737,-0.3344,0.0182,0.0022,0.2795,0.219,-2.7321,0.201,1.3879,-4.0356,-0.4154
2.6134,5.443,1.4722,-3.8429,-1.8479,0.0476,-0.019,0.7477,0.8695,-0.5747,1.5244,2.6301,-5.716,0.7761
8.3038,6.9315,6.1103,0.7049,-2.703,0.0291,-0.0095,1.5379,1.5575,13.0056,5.3509,4.9935,1.753,4.3901
12.3996,8.2029,10.5343,7.4583,-0.0706,-0.0041,0.0027,1.5156,1.5026,31.3767,10.1857,6.4613,13.0112,7.6044
9.2443,6.6073,8.4102,7.2729,4.3371,-0.0183,-0.0035,-0.0067,0.236,30.8884,9.4545,4.0873,13.8736,5.8723
-0.5629,-0.6187,-0.2384,-0.1458,5.123,-0.0143,-0.0089,-1.8672,-1.2773,7.4696,2.024,-1.3466,1.9576,-0.5751
-9.831,-8.8295,-8.4108,-6.4299,0.9582,-0.0076,0.0113,-2.4714,-1.7551,-16.3339,-5.7877,-6.4801,-8.9479,-6.5034
-13.7276,-12.5615,-11.4695,-6.5392,-3.6136,-0.009,0.0358,-1.8462,-1.33,-25.1641,-9.5484,-9.2836,-9.5947,-8.5277
-14.36,-12.7472,-11.4147,-4.5956,-5.4198,-0.0114,0.0254,-0.9832,-0.8663,-27.8158,-10.6535,-9.0535,-8.4456,-8.4026
-14.2853,-11.504,-10.8564,-5.8265,-6.2126,0.0061,-0.0056,-0.2281,-0.4272,-33.7094,-10.8348,-5.8923,-15.336,-8.471
-12.3274,-8.6436,-9.2513,-8.0608,-7.3776,0.0352,-0.0066,0.3604,0.1552,-35.7689,-9.6444,-2.5157,-23.0487,-8.0935
-8.8206,-6.2438,-6.8845,-6.7536,-6.9525,0.0348,0.0159,0.2932,0.3141,-26.7433,-7.3178,-2.3768,-18.6613,-6.3354
-6.566,-7.1699,-5.7278,-3.6184,-4.3358,-0.0017,-0.0033,-0.3947,-0.2051,-14.7182,-5.3777,-4.3337,-6.1356,-4.2014
-4.3362,-8.1637,-4.6634,-2.1769,-2.3217,-0.029,-0.0693,-0.6096,-0.5157,-10.5085,-4.6493,-4.0922,-0.3045,-2.3407
1.2113,-3.1792,-0.6306,-0.103,-1.6601,-0.0206,-0.0776,0.1511,-0.0566,-9.7185,-4.1291,-1.3409,-2.0092,0.0034
7.5338,6.6231,5.137,4.6463,0.7353,0.0024,0.0313,0.7987,0.4203,0.1147,-1.2154,0.9356,0.3116,2.7426
9.9508,13.6137,8.6001,7.2103,5.3614,0.0184,0.1298,0.5013,0.329,18.3037,5.1773,3.0634,7.4465,4.8443
10.0456,13.8896,9.2374,4.6575,8.0843,0.022,0.1104,0.045,0.1874,30.5855,11.1739,6.4768,10.4149,6.2625
11.4404,11.0506,9.2596,2.4542,7.1648,0.0101,0.1409,0.1941,0.3528,30.8744,12.1194,8.145,9.8326,7.3393
12.5927,9.9187,9.2273,4.3209,5.6469,-0.0058,0.3261,0.5062,0.4921,28.7197,9.9489,5.9884,12.6761,7.6436
10.4007,10.319,8.2379,5.8206,4.7524,-0.0019,0.2837,0.5568,0.5664,30.2484,9.4093,3.7913,16.5448,6.8046
5.632,8.6005,5.7946,3.6193,2.3611,0.0175,-0.2878,0.4146,0.6905,27.0882,8.7541,3.2534,14.4,4.7454
1.0634,3.8036,2.1904,0.7086,-0.6598,0.0222,-0.8349,-0.1368,0.3926,12.9461,3.755,0.8224,6.6496,1.454
-2.5586,-1.424,-1.589,-1.1036,-0.7727,0.0085,-0.6113,-1.1719,-0.5401,-3.1101,-2.1783,-2.9509,-2.7514,-2.2935
-6.8313,-6.2133,-4.8994,-3.8846,1.0133,0,0.0948,-2.0857,-1.378,-10.5037,-3.0899,-3.3976,-12.2588,-5.4902
-11.833,-11.7489,-7.7633,-6.7573,0.2727,-0.0027,0.3475,-2.416,-1.5699,-12.1702,-1.6445,-2.0397,-18.2305,-7.7901
-14.1886,-16.0039,-9.5402,-6.0932,-3.2375,-0.017,0.0038,-2.1188,-1.339,-16.5946,-4.227,-3.9458,-16.0092,-8.5798
-12.2172,-15.5799,-9.7186,-3.5061,-6.1146,-0.032,-0.2016,-1.1197,-0.8627,-24.5355,-9.5686,-7.4549,-8.989,-7.3667
-8.419,-10.8994,-8.7897,-3.7704,-6.6947,-0.0227,0.0552,0.2685,-0.13,-29.0172,-11.4284,-7.4494,-4.4882,-4.9103
-2.6993,-3.1831,-5.2706,-4.8388,-4.7531,0.0025,0.2718,1.3099,0.5922,-22.3246,-7.7942,-3.5133,-1.4395,-1.2205
8.0223,7.2818,3.2439,-0.8148,-0.4767,0.0138,0.1011,1.8651,1.0965,-3.6034,-1.2017,2.1139,4.7968,4.6946
19.0854,15.3376,12.6927,6.0995,3.5365,0.0047,-0.1051,2.1912,1.4173,16.8522,5.2889,7.5888,10.7062,10.4245
18.7745,13.7252,13.9778,8.1572,4.382,-0.0062,0.0176,1.8416,1.2616,25.1308,8.6031,9.2953,10.1273,10.3404
4.7044,4.1645,5.2125,4.501,2.6844,-0.004,0.252,0.3208,0.2768,16.7641,6.2933,4.2361,3.6458,2.9015
-10.4359,-4.3163,-5.0254,0.2734,0.4407,0.0087,0.2069,-1.5083,-0.958,-0.6979,-0.3625,-4.0376,-4.598,-5.9903
-14.0304,-7.0719,-8.8001,-2.739,-1.5921,0.0162,-0.0116,-2.0592,-1.3276,-14.9509,-5.9423,-7.9515,-10.2001,-9.0013
-8.3598,-6.0965,-7.0108,-5.0839,-2.4155,0.0094,0.1051,-0.8928,-0.6373,-17.8061,-5.9809,-4.9937,-8.882,-5.4726
-4.8828,-4.2432,-4.8337,-4.6059,-1.7545,-0.0004,0.6093,0.873,0.2891,-11.4038,-2.0065,0.0074,-2.3389,-1.4628
-5.833,-2.3969,-3.2511,-0.403,-1.7058,0.0002,0.7363,1.8418,0.8354,-3.3116,1.1401,2.2787,2.4172,-0.5849
-1.5766,0.3693,0.9791,3.3811,-2.2478,0.0018,-0.0205,1.48,0.9417,5.0656,2.3872,2.7093,4.1754,0.8801
9.7978,4.7247,7.2685,3.3092,0.2555,-0.0068,-0.915,0.2626,0.5527,14.8373,3.9806,3.8107,6.8025,5.3783
14.3048,7.7503,8.8633,1.0906,4.8709,-0.0088,-0.9625,-0.7668,-0.1866,17.0001,4.7024,4.1842,7.1333,7.1264
3.7522,5.2746,2.4511,-0.9025,4.9294,0.0113,-0.3827,-0.8144,-0.6112,2.4555,1.1166,1.6165,-0.5836,1.5973
-8.1938,-0.6883,-4.9942,-2.5077,0.2708,0.026,0.0434,-0.0527,-0.392,-16.977,-4.4962,-1.5418,-8.8795,-4.4916
-5.3701,-2.7328,-4.8655,-2.5506,-0.8822,0.0007,0.2361,0.6441,-0.0954,-19.7569,-6.0143,-1.7647,-4.5193,-2.4876
6.6848,1.1238,1.2258,0.2924,3.2997,-0.0395,0.3956,0.5741,-0.2187,-5.4603,-2.9642,-0.458,8.002,4.091
10.6597,4.1811,4.7838,3.4014,5.1204,-0.0417,0.3449,-0.1912,-0.4524,7.7121,0.2678,-0.6518,11.3121,5.3948
3.2085,1.7974,3.0575,3.7828,1.5692,-0.0103,0.0771,-0.644,-0.2381,12.5236,2.8898,-0.5282,4.0757,1.0911
-4.2189,-1.9376,0.8522,2.9173,-2.1159,0.0085,-0.0763,0.182,0.5348,16.2824,6.707,2.8946,1.2908,-1.0194
-4.7894,-2.1122,0.9334,2.1976,-3.0629,0.0089,-0.0907,1.5434,1.336,19.2486,9.4063,6.6977,5.8003,0.9464
-2.3891,-0.3665,0.8169,-0.1377,-2.9656,0.0141,-0.1556,1.7463,1.4175,13.7709,7.3504,6.1451,6.2364,2.0245
-0.9483,0.0457,-0.4605,-2.8532,-2.1168,0.016,-0.1807,0.9428,0.8141,3.2283,2.7576,2.9181,2.2781,1.1598
1.0224,0.7944,0.2039,-1.3418,0.4596,-0.0018,-0.0563,0.7544,0.3829,1.5231,1.4031,2.2175,4.6718,2.0964
5.6682,5.5089,4.5166,3.7716,4.4872,-0.0166,0.0813,1.0972,0.3786,13.4894,4.9791,4.589,12.6459,5.4103
12.0123,13.2158,10.1141,7.2544,8.8607,-0.0053,0.1314,0.6208,0.2204,28.9429,9.8546,6.7369,15.5122,8.0698
16.7238,18.44,13.786,8.3581,10.6027,0.0131,0.1006,-0.0186,0.0722,35.287,11.6475,7.3249,12.0567,8.8216
16.6164,17.2767,13.7006,9.4781,6.4025,0.0159,-0.0272,0.812,0.7,28.4797,8.7706,6.6137,9.3154,8.231
11.4094,10.7054,9.2765,8.5031,-0.6372,0.0084,-0.1591,1.894,1.4028,13.9151,3.0948,3.5624,8.0958,5.8651
3.8396,2.0526,1.9716,2.276,-3.0915,0.0009,-0.1411,0.668,0.6409,0.4015,-1.747,-1.6996,3.4476,1.3905
-3.8243,-5.9086,-4.9762,-5.6666,-1.1693,-0.003,-0.0748,-1.863,-0.9958,-9.0654,-4.0943,-5.6404,-5.2223,-3.6462
-11.7246,-11.7102,-9.9052,-9.1025,-2.0708,0.0007,-0.1396,-2.3466,-1.4517,-20.0174,-6.2516,-6.142,-13.1996,-7.6223
-19.3562,-15.4515,-13.8019,-7.8721,-6.0862,0.0034,-0.1256,-0.6827,-0.7774,-35.7197,-10.5562,-5.8494,-16.9539,-10.3745
-21.9194,-16.5677,-15.7303,-6.0657,-6.231,-0.0107,0.2451,0.5121,-0.5697,-46.1986,-13.9637,-6.1159,-15.4917,-10.7096
-13.4387,-11.1893,-10.8622,-3.8975,-1.7013,-0.0297,0.6348,1.1995,-0.3911,-35.7791,-10.2894,-2.5929,-6.6947,-5.2663
3.9606,2.5699,2.0756,1.7114,1.5272,-0.0241,0.4764,3.21,1.2682,-3.1245,1.293,7.0435,9.5716,5.8287
18.0414,17.1525,14.7739,8.7614,2.0034,0.006,-0.0808,5.2404,3.2876,32.6695,13.5943,15.9377,24.5199,15.0214
19.5887,21.7816,17.8205,10.569,2.9792,0.0311,-0.3737,4.2965,3.2579,50.9033,19.1032,16.0299,27.5035,15.3336
13.2696,15.936,12.7525,6.6091,4.6206,0.0299,-0.2113,1.1355,1.4811,49.5304,17.4797,9.327,20.5017,9.6411
8.4081,8.4937,7.938,3.8536,5.5215,0.0071,0.0158,-0.9783,0.0166,40.3596,13.3149,3.8478,14.1992,5.3143
5.5873,5.1472,5.7581,4.8448,7.1347,-0.0156,0.0369,-1.5001,-0.7612,30.6393,9.4293,1.8806,11.9798,3.5486
1.051,4.3581,2.7525,4.6651,9.3941,-0.0165,-0.0365,-2.0169,-1.5398,19.0289,5.333,-0.2371,8.7272,1.0029
-3.7151,2.816,-1.5201,1.1151,7.7599,0.003,-0.0495,-2.4079,-1.8476,3.7367,0.0854,-3.7415,1.279,-2.6233
-5.8305,-1.2643,-4.6868,-2.4793,0.5444,0.0169,-0.019,-1.491,-1.0615,-14.314,-5.9185,-5.8531,-8.0719,-5.0474
-6.6482,-6.7466,-6.4783,-4.0457,-6.7049,0.0092,-0.0138,0.4341,0.1245,-31.5712,-10.9123,-4.7242,-14.5245,-5.4153
-7.5949,-9.4497,-7.3762,-4.0675,-9.0097,-0.0054,-0.0312,2.265,0.9186,-41.4707,-12.8872,-1.625,-14.1156,-4.1585
-7.8456,-7.97,-7.0524,-3.1601,-8.2298,-0.0085,-0.0302,3.4044,1.4053,-39.2069,-11.2905,0.8863,-7.7229,-2.2032
-7.3026,-6.4206,-5.9598,-2.6817,-7.3903,-0.0053,0.0008,3.3937,1.5987,-26.5224,-6.8481,1.9301,-1.0699,-0.8141
-4.9389,-5.8217,-3.4268,-2.3156,-5.2812,-0.0084,0.0352,2.3851,1.3313,-8.351,-0.4687,3.5028,2.3847,0.5052
2.2922,-0.4577,3.318,2.286,-0.8674,-0.0144,0.0414,1.8166,1.1507,12.0284,6.3616,7.2975,5.826,3.9286
12.8378,11.0289,13.0871,11.5703,3.5405,-0.0111,0.0179,2.4027,1.5743,32.9138,12.2385,11.3722,13.2841,9.1512
19.4132,20.6621,19.0179,16.6642,7.0417,0.0032,-0.0084,2.5168,1.8307,51.8818,17.405,12.6935,22.8224,12.7869
18.7717,22.512,17.4844,11.413,11.3907,0.018,-0.0206,0.7606,0.955,62.9047,21.3902,11.2048,27.8882,12.8819
14.6095,18.7158,12.2339,2.5709,14.9512,0.0237,-0.0269,-1.5827,-0.5336,56.9637,20.2973,8.2792,22.7618,10.0236
9.202,11.432,6.7262,-1.1608,12.3574,0.0173,-0.0303,-2.565,-1.378,31.4988,11.2686,3.5479,8.0486,4.7138
1.8584,0.8617,0.442,-1.1032,3.0313,0.002,-0.0175,-1.9406,-1.1536,-1.1628,-1.4319,-2.7613,-6.1907,-1.5194
-4.3432,-7.4351,-5.0711,-1.5104,-5.7032,-0.0127,0.011,-0.3781,-0.2675,-21.8278,-9.498,-6.8287,-8.2383,-4.5018
-4.7723,-6.2789,-5.5538,-0.7044,-7.0559,-0.0161,0.0287,1.3888,0.6388,-22.1957,-9.3792,-5.4781,1.0793,-2.2488
-1.5811,1.2817,-1.6776,2.6768,-2.4195,-0.0076,0.02,2.2736,0.9473,-10.8421,-4.6477,-1.1043,9.1866,1.3267
-1.0609,4.743,0.3016,3.2368,1.8683,0.004,0.0063,1.6587,0.5258,-2.2683,-0.47,1.7763,7.9627,1.7735
-4.9413,-0.2096,-3.0362,-3.0667,1.9942,0.0108,0.0103,0.3491,-0.0895,-3.9618,0.7029,1.8314,0.7813,-0.6693
-10.247,-8.1429,-8.188,-9.6968,-1.5156,0.0102,0.0188,-0.1662,-0.2338,-13.5647,-1.2714,0.5253,-6.1403,-3.6203
-13.1393,-10.993,-9.2322,-7.0871,-5.8776,0.0066,0.0091,0.9875,0.4009,-22.9748,-4.608,0.2677,-9.9173,-5.213
-9.5114,-5.1646,-3.8907,2.7518,-7.2796,0.0062,-0.0079,3.1207,1.5033,-22.0479,-5.1887,3.045,-7.9513,-3.1509
1.9699,5.1211,4.8408,8.7503,-3.3951,0.0042,-0.0089,4.1697,2.1792,-3.633,0.5002,7.9021,2.2555,3.536
15.5978,12.2102,12.3734,7.5194,3.3131,-0.0095,0.0016,3.068,1.9206,27.7692,10.7781,11.6044,17.1541,11.4328
22.7724,14.8856,16.4558,6.2006,7.6524,-0.0188,0.0046,1.2795,1.3331,54.3022,19.016,12.2249,26.8146,15.1548
20.5212,17.9015,16.4807,8.087,7.4996,0.0087,-0.0031,0.3815,1.0657,58.7208,19.3463,9.1906,24.1854,12.4598
12.5835,20.1519,11.9586,8.1175,5.2415,0.0565,-0.017,-0.1593,0.6974,40.255,11.8369,2.7799,12.6856,5.7744
3.7904,13.9866,4.1146,3.6302,4.0063,0.058,-0.0381,-1.1474,-0.3486,12.4723,1.8774,-3.5008,1.8198,-0.3402
-3.4544,-0.7211,-3.6313,-1.7641,3.8012,-0.0022,-0.0526,-1.8686,-1.5483,-12.3446,-5.6198,-5.449,-4.4222,-3.4417
-7.8138,-12.7568,-8.0539,-4.4417,1.8251,-0.0538,-0.0238,-1.4635,-1.8331,-29.8945,-10.0835,-4.1883,-9.6706,-4.6686
-7.9162,-13.3897,-7.7541,-3.1775,-2.4465,-0.0468,0.0508,-0.1964,-0.9722,-36.9065,-12.1767,-3.3842,-14.1828,-5.1219
-5.3927,-6.6832,-4.4578,0.6336,-5.0805,-0.0149,0.0942,1.0614,0.1564,-29.9115,-10.4205,-2.7044,-11.8207,-4.0261
-5.6186,-3.613,-3.1958,1.5273,-4.0375,-0.0037,0.0543,1.4784,0.6052,-14.7834,-4.7263,-0.5929,-2.7299,-2.1727
-10.432,-8.6447,-6.6372,-3.8311,-2.881,-0.0111,0.0413,0.9015,0.3774,-4.4276,0.7764,1.1199,3.7495,-2.0381
-13.6305,-13.8382,-9.7519,-8.968,-3.5419,-0.0156,0.1765,0.2098,0.1578,-0.9619,3.1764,1.0586,4.0444,-2.9521
-9.2175,-8.9064,-5.9251,-5.5628,-2.3962,-0.0071,0.2799,0.1602,0.2678,6.4754,4.8858,1.5019,4.374,-1.7031
-0.1969,4.098,3.0693,3.4117,1.942,0.0141,0.0341,0.3367,0.4423,21.0917,8.2398,3.9352,7.0495,1.6602
5.6465,12.8868,9.0076,8.2219,5.0171,0.0343,-0.4228,0.1699,0.4462,30.0764,10.457,5.9353,7.3211,3.7333
4.8263,10.3434,7.1711,5.8298,3.735,0.0309,-0.5008,0.0072,0.3109,21.649,7.5134,4.6132,4.0908,2.8129
-0.3822,-0.0188,-0.2091,0.0627,-0.2704,0.0002,0.002,0.2578,0.1205,-0.9214,-0.1679,0.2677,0.498,0.0974
3.861,6.5182,3.316,1.9648,3.7229,0.009,0.1158,0.271,0.1269,11.5493,4.0753,2.2086,6.7989,2.8863
4.7448,8.5335,5.2616,4.6689,0.3018,0.0221,0.2779,1.9433,1.3123,13.2584,5.3257,4.7769,6.522,3.8133
7.6701,10.3764,7.1058,5.9832,1.0666,0.0104,0.1117,2.748,1.7569,20.6004,7.5955,6.6209,16.3924,7.1751
9.0452,10.6287,7.5978,5.7279,4.0964,-0.0044,-0.3182,1.9659,1.1772,25.6201,8.5564,6.3423,22.7371,8.6898
5.5721,7.7188,5.5245,4.1281,4.7392,-0.0002,-0.3983,0.4137,0.2816,21.8132,7.1814,4.0822,14.7666,5.2629
0.5642,2.2046,1.6625,0.4633,2.6487,0.0054,0.2416,-0.3857,-0.0333,17.573,6.7686,2.0817,5.7481,1.3366
-1.6663,-2.6175,-1.6166,-4.6478,1.3555,-0.0006,0.9332,-0.5744,0.007,19.543,8.6719,1.4869,6.1524,0.6756
-1.9124,-3.18,-2.1944,-6.124,2.2435,-0.0019,0.84,-0.9696,-0.2527,19.3248,8.7712,1.3879,6.1336,0.6316
-0.751,0.9695,0.9707,0.4478,3.2296,0.0031,0.2529,-0.7151,-0.387,11.9304,5.1336,1.9216,0.6534,-0.0239
4.8731,7.213,6.8974,9.9394,2.9666,-0.0037,-0.0049,1.1653,0.4178,8.0985,2.5737,4.5945,1.2645,2.6212
13.1917,12.8307,11.5292,11.9146,2.7561,-0.0087,0.0728,3.0852,1.5677,13.1119,4.1995,8.1203,10.0751,8.2749
15.3348,15.6719,10.5723,4.9193,4.0616,0.0161,-0.0295,2.472,1.4546,14.6971,5.4129,7.7431,11.5671,9.4654
8.5095,13.6587,4.7919,-2.1094,6.1534,0.0466,-0.2806,-0.5522,-0.2426,5.9398,1.9848,1.4289,1.3509,3.4468
1.3166,7.5601,-0.4142,-3.1359,6.5918,0.0369,-0.265,-2.9199,-1.7766,-2.3201,-2.6996,-5.7647,-4.8107,-2.3976
-0.3253,1.6537,-1.9462,-0.8869,3.774,0.0008,0.0206,-2.2489,-1.5031,-3.8419,-4.1169,-7.1359,0,-2.3817
-1.5212,-1.9724,-2.3375,0.2528,-0.9825,-0.0145,0.217,0.3348,-0.0455,-7.9738,-3.8335,-2.9843,2.8613,-0.5984
-6.473,-5.0922,-4.3961,-0.5793,-4.415,-0.0062,0.1896,1.9342,0.808,-17.1447,-4.4792,0.6124,-2.401,-1.7749
-9.2983,-6.8734,-5.8211,-1.9975,-4.5321,-0.0024,0.0984,1.7347,0.7095,-17.2403,-3.686,1.1726,-3.861,-2.8038
-4.3216,-3.6104,-2.8645,-1.9442,-2.4376,-0.0047,-0.002,1.3334,0.7127,-2.6921,0.6516,2.0095,4.2274,0.3096
3.0334,2.6541,2.4248,0.229,-0.6245,0.0015,-0.1781,1.5403,1.08,10.7382,4.7074,4.4324,10.0447,4.2312
3.9325,4.9122,3.8763,1.6904,0.6742,0.0099,-0.2197,1.2109,0.857,10.7194,4.6802,4.8311,6.1143,3.7432
-0.4572,2.64,0.5977,-0.0334,3.6788,0.008,0.1266,-0.3776,-0.3516,5.8753,2.9661,1.652,0.9175,0.293
-1.4637,2.0419,-1.1762,-1.947,7.7378,0.0003,0.4328,-1.9953,-1.5052,7.2255,2.8581,-1.2517,1.3285,-0.9447
3.5368,4.3059,2.132,-0.045,7.7925,-0.0047,0.1013,-2.0016,-1.366,11.5487,3.3313,-0.5952,3.253,1.1618
8.3254,5.2045,6.177,3.4547,2.7756,-0.0066,-0.36,-0.3775,-0.0447,13.7448,3.6229,2.2358,4.4768,3.8447
8.8236,5.6878,6.8606,4.3321,-0.0718,-0.0036,-0.0147,1.2636,1.081,17.9793,5.9036,4.514,8.8819,5.5316
8.693,10.244,6.9557,4.2859,4.0539,0.0062,0.6641,1.4842,1.0255,26.8595,9.7746,5.427,15.5539,6.7673
11.0658,15.765,9.3473,6.4605,9.1283,0.0128,0.4277,0.5142,0.2878,32.7577,10.9169,5.1375,17.8687,7.5455
11.9039,14.4075,10.1428,7.2252,8.0324,0.0094,-0.5119,-0.4127,-0.1552,27.2388,7.5861,3.6443,13.2791,6.568
6.9113,6.7826,5.3343,2.4065,3.1636,0.0073,-0.754,-0.5771,-0.1429,12.3869,2.9379,1.4602,5.7576,3.4333
0.1377,1.8866,-0.6,-2.1586,0.2066,0.0142,0.0301,0.0997,0.1197,-0.4321,0.1417,-0.223,1.0573,0.2998
-0.8943,4.0037,-0.5322,1.3132,-0.7333,0.0197,0.7401,1.214,0.6327,-2.2946,-0.63,-0.7776,1.2925,-0.3123
3.3282,7.1757,3.7148,7.2564,-1.6491,0.0171,0.5948,1.4814,0.9309,2.4163,-0.7021,-0.8298,1.3637,0.6661
4.4042,4.1793,3.8232,4.4327,-1.8956,0.0133,0.0237,0.1017,0.3476,1.822,-1.0578,-1.1994,-4.0494,-0.0274
-1.6287,-3.2882,-1.8895,-4.5521,-1.0862,0.0113,-0.2201,-1.4255,-0.569,-4.2273,-1.0639,-1.5349,-9.1856,-2.601
-8.3645,-7.3415,-6.3093,-8.181,-0.2076,0.0078,-0.0662,-1.3712,-0.6969,-2.5247,1.3306,-0.6839,-4.6534,-3.5942
-8.4211,-5.2591,-5.0539,-5.6143,1.2259,0.0027,0.053,-0.608,-0.2778,9.9772,5.8716,1.4118,5.7867,-1.3661
-3.3092,-1.9685,-1.7827,-3.8454,3.1582,-0.0046,0.0137,-0.4866,-0.2079,16.8652,7.7115,2.7939,10.3078,1.4534
-0.121,-1.8408,-0.9259,-2.4048,1.909,-0.0146,0.0958,-0.1781,-0.1988,5.0107,2.4934,1.1693,5.449,1.4298
-2.3876,-4.9261,-2.6748,1.8752,-4.2543,-0.0214,0.3141,0.9559,0.2633,-18.2795,-7.3326,-3.095,-4.4731,-2.0957
-6.7502,-9.0322,-5.2329,3.89,-9.2407,-0.0219,0.284,1.4865,0.4637,-36.8158,-14.4624,-6.017,-14.496,-6.0149
-6.4791,-9.4375,-5.8016,-0.2285,-6.4013,-0.0199,-0.0919,0.7954,-0.1027,-40.8782,-14.3978,-3.9768,-18.2151,-5.6659
0.8605,-2.3111,-1.8477,-3.3979,0.8416,-0.013,-0.3838,0.3103,-0.5014,-29.6954,-9.1713,0.7604,-12.1258,-0.6048
8.3977,7.1581,3.7935,-0.5918,3.8411,0.0049,-0.3244,0.4499,-0.1169,-10.5743,-3.5696,2.2804,-2.6851,3.5345
7.5283,8.9497,4.7592,1.6936,1.7639,0.0228,-0.2505,0.0491,0.2277,5.6698,0.611,0.1328,2.6649,2.8494
0.8001,3.1184,1.6324,0.0523,0.7176,0.0165,-0.4804,-0.5755,0.0834,15.7661,4.8435,0.2758,7.2911,1.2285
-0.994,0.0076,1.9497,1.8973,2.2392,-0.0127,-0.6099,0.1731,0.3034,25.4299,9.5118,4.6106,16.2717,3.4973
4.5027,3.7325,6.6636,8.3975,2.2938,-0.0283,-0.0488,1.6088,1.1176,35.562,12.3141,6.8696,22.9975,6.8653
7.4698,6.2172,7.1491,7.9825,0.0555,-0.0087,0.8486,1.1969,1.2519,35.618,10.9344,2.6027,17.7537,5.3798
1.6369,0.987,-0.3354,-3.198,-1.0588,0.0185,1.0258,-1.0967,0.047,17.2063,5.182,-3.5483,3.0408,-0.5132
-6.4111,-6.8684,-7.826,-12.084,-0.2706,0.018,0.2412,-2.4963,-1.2882,-11.7605,-2.9679,-5.2097,-10.9846,-5.2039
-8.7798,-9.9311,-8.3102,-9.0564,-0.5254,-0.002,-0.5911,-1.8455,-1.5456,-33.4127,-10.0671,-3.4548,-19.5203,-6.496
-7.4908,-8.707,-5.3202,-1.7514,-2.684,-0.01,-0.7766,-0.845,-1.053,-36.857,-12.4511,-2.8999,-21.8849,-6.5731
-6.9556,-6.0857,-3.9523,0.089,-3.6917,0.0021,-0.4779,-0.4245,-0.4709,-23.9398,-8.3556,-2.7892,-15.9003,-5.7168
-4.4524,-1.0626,-1.9062,-0.1002,-1.7466,0.0135,0.1014,0.5412,0.3038,-4.456,-0.5234,0.4266,-3.5794,-1.9824
2.8479,5.1516,3.2276,4.0578,0.3909,0.0053,0.8496,2.1022,1.1612,8.8056,4.3034,4.2391,5.5185,3.0008
9.4724,6.7011,6.7447,7.6215,-0.4239,-0.0119,1.078,2.3131,1.3144,8.3337,2.3021,3.1277,5.1138,4.7263
9.3149,2.4548,4.7556,3.386,-2.6196,-0.0135,0.1936,0.5837,0.5862,0.5261,-2.0172,-1.0018,0.0768,2.7934
4.8665,-1.3753,1.2427,-3.5153,-1.7984,-0.003,-1.0067,-1.1727,-0.2728,-1.3026,-1.9717,-1.5735,-1.2806,1.1758
1.8848,-0.8297,0.6466,-3.8684,3.0242,-0.0056,-1.0954,-1.6324,-0.8328,5.8716,1.9858,1.0441,2.6614,1.515
1.032,1.3369,1.0521,0.3785,7.1182,-0.0188,-0.0107,-1.365,-1.1202,11.8274,4.163,1.0636,6.6825,1.5665
-0.8008,0.7731,-0.8306,1.4195,4.751,-0.016,0.8541,-0.7845,-0.813,6.5093,1.6932,-2.0585,5.1303,-0.2718
-5.33,-3.9752,-4.4853,-1.2445,-3.7907,0.0032,0.5654,0.2155,0.1388,-9.6238,-3.8171,-4.2745,-2.9878,-3.4378
-10.6653,-9.8937,-7.404,-2.6009,-10.9904,0.0143,-0.2731,0.8024,0.7001,-27.0112,-9.4386,-4.8328,-13.748,-6.9057
-12.7004,-11.3809,-7.8186,-1.1278,-10.0771,0.0099,-0.5793,0.1482,0.0844,-34.7026,-12.2211,-5.3261,-20.7164,-9.0256
-9.8918,-7.6644,-5.9937,0.1124,-3.5647,0.0009,-0.2195,-0.8199,-0.8466,-28.7951,-10.2972,-4.958,-18.6555,-7.8623
-5.6037,-5.0962,-4.3417,-1.8816,0.146,-0.0078,0.0994,-0.8529,-0.87,-15.9403,-5.2586,-2.8082,-9.1781,-4.084
-3.0545,-6.6552,-4.1056,-6.1739,-1.4659,-0.0132,-0.061,-0.332,-0.1792,-5.3615,-0.743,-0.3898,-0.2287,-0.65
-0.633,-5.6059,-2.4538,-7.3724,-2.3819,-0.0078,-0.4007,-0.0158,0.3364,3.5724,2.6891,1.7639,4.6442,1.6598
4.5464,3.3633,3.5097,-1.1439,1.7333,0.0042,-0.4064,0.357,0.518,17.4801,7.0862,4.8277,9.3132,4.5107
10.806,13.4217,10.533,8.2323,6.6654,0.0086,-0.0197,0.7842,0.5731,30.9737,10.6084,6.9957,13.1547,7.1109
12.758,13.8712,11.6226,10.8093,5.8813,0.0047,0.3404,0.4762,0.4053,27.8573,8.1674,4.547,8.5659,6.0062
7.6974,4.4236,5.3334,4.5429,-0.5279,0.0033,0.3691,-0.3909,0.0865,6.0341,0.1359,-1.2388,-4.5593,0.8334
-0.9713,-6.0999,-2.303,-1.4896,-6.6644,0.0006,0.2116,-0.6865,-0.0698,-16.2792,-7.0607,-5.2942,-15.0168,-4.4538
-7.8318,-12.1624,-6.684,-2.0823,-8.3838,-0.0142,0.0877,-0.5181,-0.2315,-25.4749,-9.9451,-6.671,-15.3675,-6.9447
-11.4484,-15.281,-9.592,-3.579,-6.5658,-0.0302,-0.0205,-1.0461,-0.8055,-26.4544,-10.3286,-7.9063,-10.7355,-7.5322
-14.3649,-17.3457,-13.1497,-10.0799,-4.2036,-0.0251,-0.1131,-2.1335,-1.5073,-27.9499,-9.7224,-8.5981,-10.35,-8.3323
-17.581,-17.4906,-15.0428,-14.2183,-3.5819,-0.0018,-0.0655,-2.3805,-1.5971,-29.8804,-8.2542,-6.9128,-15.9263,-9.8042
-16.7882,-14.7246,-11.907,-9.1301,-5.0088,0.0086,0.0595,-1.2279,-0.8499,-26.9153,-6.6436,-3.8819,-19.1916,-9.5824
-6.9082,-8.4339,-3.4326,0.7393,-5.6953,-0.009,0.0827,0.5272,0.2873,-14.079,-3.9138,-0.3538,-11.6767,-4.3667
8.1512,1.2708,6.5124,6.3857,-2.3856,-0.0252,0.1393,1.7445,1.1679,7.9569,2.5047,4.682,2.4739,4.3705
15.87,10.3851,11.4758,5.3912,2.9177,-0.0061,0.4183,1.7777,1.3663,26.9837,10.026,8.7314,10.3237,9.2752
10.8275,13.2034,8.8378,3.2698,4.4828,0.03,0.5387,0.9755,0.9431,26.9474,10.4254,6.5776,7.7206,6.2636
2.9637,9.7995,3.7932,4.9142,2.1709,0.0328,0.0241,0.0928,0.1505,7.4129,1.1471,-0.8099,2.0515,0.534
2.0381,4.7516,1.5716,6.7673,1.9856,-0.0037,-0.7107,-1.1127,-1.0628,-13.7411,-9.2694,-6.7144,-2.5889,-1.9527
2.8446,-1.355,-0.3476,2.6074,4.1895,-0.0337,-0.7959,-3.0425,-2.4293,-22.7487,-12.5906,-8.7618,-9.803,-3.2603
-3.3594,-10.061,-5.5484,-4.7632,1.0136,-0.0281,-0.1857,-4.0011,-2.6495,-25.0554,-11.0771,-9.459,-19.789,-7.2238
-12.419,-16.8329,-10.612,-7.6846,-8.5438,-0.0039,0.3489,-1.9898,-0.9815,-30.4026,-10.4245,-8.4577,-25.0075,-10.6851
-14.9968,-16.1745,-11.2472,-6.6069,-13.9585,0.01,0.3008,1.198,0.9378,-34.6805,-10.1847,-4.4619,-19.8104,-8.9884
-11.9254,-11.5467,-9.2726,-6.4196,-10.11,0.0061,-0.1185,1.9349,1.1138,-28.8737,-7.7199,-1.1781,-8.9295,-4.8135
-9.3221,-8.7802,-6.9485,-5.0224,-5.1766,-0.0025,-0.4118,0.5706,0.31,-14.4372,-3.7824,-1.254,-1.7017,-3.1179
-6.454,-5.6707,-2.3262,1.1719,-4.6734,-0.0021,-0.3416,0.3026,0.4753,3.4398,1.281,-0.2581,1.217,-2.223
-0.0874,1.0662,4.3359,6.9947,-2.9203,0.0032,-0.062,1.1026,1.1966,23.9075,8.4573,4.178,7.0111,1.5531
5.8113,6.3662,7.3886,5.726,2.8523,0.0031,0.1924,0.2815,0.7235,38.728,13.6649,5.6935,14.0784,5.0123
4.7901,3.8337,3.523,-0.1749,5.1269,0.0012,0.293,-2.0111,-0.7205,29.6951,9.3724,-0.1691,9.2274,2.3109
-1.8956,-4.5187,-3.3307,-4.1714,-0.5403,0.0041,0.0969,-3.0498,-1.5179,-6.7645,-4.3766,-7.6944,-11.5656,-5.1896
-7.0137,-11.5783,-7.5652,-4.9452,-7.1127,0.0018,-0.3392,-2.1995,-1.4046,-46.0577,-17.631,-9.8335,-32.3831,-10.3678
-7.0412,-13.4521,-8.0262,-4.655,-7.1209,-0.0152,-0.5304,-1.2246,-1.3014,-60.3401,-21.628,-7.6887,-35.8899,-9.8039
-5.0558,-11.4965,-6.9618,-3.4761,-3.5833,-0.0332,-0.1714,-0.9184,-1.3071,-48.0927,-17.5101,-6.514,-23.4325,-6.6678
-4.2848,-8.4333,-5.6929,-0.6978,-3.4946,-0.032,0.3468,-0.3928,-0.7097,-28.0039,-11.6166,-7.1795,-9.0353,-4.5597
-3.1147,-4.2956,-3.233,2.032,-5.4634,-0.0135,0.4945,0.7195,0.4043,-11.1071,-5.9361,-5.557,0.1302,-2.5097
0.6739,2.1379,1.0391,2.6471,-2.1704,0.0039,0.2121,1.3223,0.9185,5.6807,1.4974,0.3954,7.0303,1.4942
3.8721,7.729,4.6941,2.082,6.0944,0.0093,-0.1601,0.4389,0.1973,20.4907,8.5491,6.15,10.7559,4.6562
1.7022,5.8092,4.0963,1.547,9.9561,0.0037,-0.1929,-1.3485,-1.0227,21.7577,9.479,5.9481,4.3614,2.4256
-3.8221,-3.9004,-0.7163,-1.1129,4.9952,-0.0063,0.0997,-2.7449,-1.643,8.9863,4.3226,0.519,-8.8879,-3.3749
-6.4461,-12.0094,-5.1425,-5.8894,-1.8837,-0.013,0.0894,-3.1662,-1.4955,-2.1366,-0.5985,-4.4463,-13.9337,-6.2151
-5.6479,-11.6719,-5.6587,-6.2791,-3.7273,-0.0166,-0.4104,-2.5528,-1.0866,-4.3298,-2.5775,-5.7691,-6.4809,-4.6838
-5.9367,-7.7763,-4.2378,-0.1783,-2.7707,-0.0225,-0.5397,-0.9949,-0.6191,-7.5906,-4.3765,-4.7237,-0.1188,-3.3091
-7.1924,-7.1737,-4.2941,2.9116,-3.7193,-0.0245,0.1589,0.6643,0.0015,-15.9186,-6.1595,-2.9841,-3.5247,-3.694
-5.3337,-7.5045,-4.994,-2.7546,-5.4932,-0.008,0.7512,1.2075,0.5377,-19.8453,-5.3775,-1.0623,-9.7543,-3.2344
-2.2373,-4.6304,-4.3059,-8.2025,-5.2647,0.022,0.4461,0.4002,0.4426,-19.5538,-4.6226,-0.7026,-14.7406,-2.8465
-4.1771,-2.8786,-4.0665,-5.4668,-4.2546,0.0373,-0.1607,-0.9897,-0.4404,-26.7509,-8.6756,-3.8116,-23.4109,-6.3042
-9.4462,-7.0393,-5.6882,-0.0221,-4.453,0.0182,-0.3248,-1.9349,-1.3453,-36.3267,-13.7078,-7.5466,-30.3652,-10.7491
-8.894,-11.5453,-5.5635,1.3562,-5.038,-0.0205,-0.2936,-1.4627,-1.1143,-28.2099,-11.2281,-6.4423,-20.4565,-8.422
-1.0523,-8.7781,-1.6306,0.2738,-5.1271,-0.0404,-0.4249,0.3822,0.3472,-3.0404,-2.1854,-1.1851,3.9716,0.3169
4.8121,-1.8123,1.5305,-1.0479,-4.9652,-0.0246,-0.3797,1.947,1.6885,17.16,5.0792,2.0825,22.1791,6.5263
3.6381,1.2227,0.5273,-3.4654,-3.6402,-0.0006,0.101,1.7456,1.722,23.8011,8.0195,1.5265,24.4639,6.2122
0.9573,-0.3332,-0.8899,-4.5907,-0.6406,0.0013,0.4856,0.0948,0.6416,23.945,8.5295,0.0967,16.9761,3.2346
1.5673,-1.3273,1.019,-0.7028,1.5715,-0.0069,0.1648,-1.8109,-0.6865,15.662,4.5334,-1.5669,1.7758,-0.1994
2.9357,0.3104,3.6506,4.6947,1.3706,0.0028,-0.5657,-3.0158,-1.6301,-5.4713,-4.5104,-3.9174,-19.6959,-4.4897
2.0235,2.6078,2.9539,4.7101,1.3254,0.0225,-0.791,-2.789,-1.8457,-26.4496,-11.4533,-4.5999,-32.1234,-6.8499
-0.6196,2.8347,-0.7552,0.467,2.7168,0.0206,-0.1588,-1.1549,-1.3275,-31.8251,-11.2453,-2.9331,-23.6487,-5.0041
-4.2296,-1.1082,-4.6534,-1.412,1.4739,-0.0048,0.6727,0.6416,-0.4729,-26.6003,-8.4607,-2.3741,-7.6868,-2.7706
-8.2734,-7.5757,-7.1085,-0.6797,-4.0298,-0.0205,0.8944,1.3224,0.2075,-23.7868,-7.941,-3.886,-3.8682,-3.9406
-10.2905,-10.1636,-7.6399,-2.4176,-7.2327,-0.0056,0.4942,0.8652,0.3716,-22.7255,-7.1045,-3.6513,-9.7365,-5.7266
-8.3913,-5.9825,-6.1239,-6.2231,-3.6176,0.0199,0.0546,0.1265,0.075,-16.3465,-3.2653,-0.4268,-11.1105,-4.4037
-4.3371,-1.1424,-3.3425,-6.1047,0.672,0.0233,-0.0799,-0.2348,-0.1873,-7.1574,0.0312,1.5275,-6.1932,-1.7326
-0.5668,-0.7741,-0.3764,-0.3037,-0.1317,-0.0005,-0.0089,-0.1916,-0.103,-0.7284,-0.2253,-0.2798,-1.2344,-0.503
1.3437,1.3868,0.6718,0.3825,-0.1246,0.0066,-0.0977,-0.3813,-0.1618,-2.2847,-1.5785,-1.3781,-2.7165,-0.5065
-4.323,-2.0975,-3.9579,-3.4929,-0.6767,0.0196,0.0143,-2.5275,-1.1349,-1.2423,-2.476,-7.6998,-5.1863,-4.99
-5.1763,-4.1079,-5.6406,-6.0634,3.1128,0.0075,0.0579,-4.0053,-2.3085,-5.792,-3.8988,-9.0478,-8.8743,-6.2247
-2.0199,-2.9243,-3.9076,-5.5385,7.3242,-0.0106,0.0374,-3.8984,-2.7572,-11.2357,-4.809,-6.0242,-10.9067,-4.3605
-1.6803,-1.2369,-2.8885,-4.0703,4.8181,0.0011,-0.0385,-2.5056,-1.8915,-14.9204,-5.4501,-3.9744,-12.1825,-3.7379
-7.1222,-2.9252,-5.4988,-4.6369,-3.6168,0.0358,-0.1392,-1.0971,-0.5142,-20.3001,-7.0995,-5.3236,-15.7507,-6.55
-11.9414,-5.8254,-8.0045,-4.5993,-9.181,0.0484,-0.1565,-0.1303,0.3075,-24.8274,-8.5406,-6.4109,-17.1884,-8.674
-11.3219,-6.6484,-7.2648,-1.9936,-6.6049,0.0202,-0.0702,0.2588,0.1224,-23.6757,-8.0405,-4.7608,-12.2389,-7.0336
-8.7097,-6.9547,-6.0794,-1.2143,-0.409,-0.0162,-0.0529,-0.345,-0.7709,-19.6658,-6.4958,-2.9311,-6.1779,-4.4502
-5.1759,-6.4618,-4.7558,-3.2273,2.2164,-0.0273,-0.1494,-0.8542,-1.0543,-12.5931,-3.8033,-1.483,-1.8125,-1.9949
4.1368,-0.6102,1.4529,-1.813,0.4936,-0.018,-0.0913,0.5765,0.3545,4.8826,2.3437,2.8892,6.3115,3.6807
16.6365,9.0188,10.7798,3.5854,-1.0485,-0.006,0.1735,2.6791,2.1669,26.1844,9.3676,8.3769,15.221,10.6349
19.7531,13.0608,13.3664,5.4591,-0.4127,0.0089,0.1635,2.19,2.0491,29.0304,9.427,7.5684,11.9789,10.5195
8.8107,7.788,6.2248,2.299,-0.3503,0.0275,-0.3548,-0.5348,0.2523,8.7974,1.3137,-0.1293,-3.0762,1.871
-3.6305,0.9431,-1.0893,0.9696,-1.7199,0.0338,-0.7775,-1.9069,-0.8565,-9.7132,-5.4552,-5.5091,-13.0093,-5.5704
-3.8853,0.8931,-0.2189,3.9741,-0.2087,0.0167,-0.4761,-1.0313,-0.6486,-6.8226,-3.7231,-2.961,-9.1368,-4.2542
4.2926,6.1091,4.572,6.0303,5.4285,-0.0055,0.2899,-0.235,-0.4898,6.161,1.5994,1.6002,-0.0187,1.3983
6.5034,8.4528,4.0923,3.4618,8.2138,-0.0067,0.7058,-0.3874,-0.7113,8.3966,2.3081,0.7442,5.5,3.0551
-0.6537,3.7871,-1.8698,-1.1715,3.7747,0.0065,0.3233,-0.5277,-0.5912,-0.3603,-1.2297,-3.5721,6.7616,-0.0078
-6.8064,-4.1471,-5.9252,-4.414,-1.4137,0.0044,-0.4419,-0.9587,-0.5375,-6.5862,-3.3432,-5.2192,3.4566,-2.9101
-5.3339,-9.1674,-5.1563,-6.0609,-1.6188,-0.0134,-0.729,-2.1581,-1.1108,-7.0961,-3.0145,-4.0363,-4.6424,-3.5424
-0.7231,-8.502,-2.8082,-5.8309,-1.556,-0.0179,-0.3449,-2.2314,-1.0974,-7.9608,-3.1541,-3.153,-10.3022,-2.784
0.8972,-4.3481,-1.0117,-1.9627,-5.1174,-0.0057,0.0095,0.1961,0.4013,-7.9362,-3.2693,-1.7553,-5.2286,-0.8684
-1.5332,-1.6629,-0.2568,2.7842,-6.4673,-0.0027,-0.0061,2.5157,1.6425,-1.9505,-0.6103,1.4179,5.6748,1.1514
-4.6271,-2.0856,-1.3864,2.0712,-1.4988,-0.0099,0.1246,1.768,0.8946,4.7456,2.9904,3.0619,8.7926,0.9959
-3.1006,-1.2051,-2.2266,-2.5106,3.7361,-0.0044,0.566,-0.4558,-0.5421,3.2566,2.796,1.0239,1.246,-0.5107
3.8671,3.6719,0.7455,-2.6027,3.5192,0.0111,0.7022,-0.8235,-0.6033,-2.8275,-0.6438,-0.9191,-5.925,-0.0112
9.4575,7.7823,5.2065,1.7447,1.1517,0.0153,0.3045,0.2743,0.232,-2.0614,-1.5693,0.4091,-5.0421,2.3333
8.3019,7.1516,6.2303,3.2339,1.7263,0.0109,-0.1204,0.1682,0.296,8.6628,2.4525,2.5675,-0.2223,3.1602
4.2013,5.3941,5.1414,2.5261,3.9265,0.0126,-0.2546,-1.0055,-0.2526,21.828,7.617,3.0789,3.0394,2.0638
2.7018,5.9613,5.6559,5.034,3.3528,0.017,-0.2068,-0.8172,-0.0512,27.0663,9.2583,3.2632,4.4098,1.5424
2.4215,5.7116,5.3453,6.8867,-0.2648,0.0167,-0.061,0.7467,0.7829,17.5078,5.8394,3.2628,3.2968,1.5396
-0.3689,1.3646,0.2477,1.1209,-2.9769,0.0142,0.0678,1.0855,0.7771,-2.4636,-0.7619,0.3209,-0.6677,-0.1098
-4.4327,-4.6604,-6.5627,-7.6724,-2.6968,0.0058,-0.037,-0.4477,-0.2936,-16.9593,-6.1639,-5.1017,-1.9488,-2.564
-6.1513,-8.1323,-8.9024,-9.4472,-1.8133,-0.0123,-0.3118,-1.5052,-0.9932,-17.2531,-7.4156,-8.0311,2.3131,-3.1331
-5.626,-8.4359,-6.5254,-4.6899,-2.5688,-0.0235,-0.4146,-0.872,-0.66,-14.1919,-6.3444,-5.7762,1.836,-2.6378
-5.8671,-8.5236,-4.5442,-2.697,-3.556,-0.0138,-0.2335,-0.0779,-0.2515,-19.4482,-5.8448,-1.0875,-10.7179,-3.6698
-7.5367,-10.3433,-5.6444,-6.1342,-3.2908,-0.0036,-0.0854,-0.1794,-0.3739,-26.2221,-5.7787,1.5357,-20.7658,-5.0353
-7.7923,-11.2526,-6.7792,-7.0054,-3.4469,-0.0135,-0.3287,-0.2432,-0.3997,-23.9426,-6.0014,-0.1111,-12.8826,-4.0533
-4.4131,-7.4023,-4.1515,-0.1417,-5.4407,-0.0247,-0.7506,0.5709,0.169,-18.4098,-7.9773,-3.6464,0.4732,-1.82
1.0241,0.2239,0.8475,7.1639,-6.9225,-0.0102,-0.6096,1.9613,1.0316,-18.7964,-9.815,-3.6265,0.1733,-0.3675
5.3365,7.4888,4.044,6.028,-4.1446,0.021,0.2352,2.9814,1.6004,-15.7854,-5.916,1.616,-5.4309,1.5887
8.1366,13.1497,5.9137,0.8801,3.8216,0.0388,0.7873,2.3095,1.2587,7.0909,5.2169,7.3823,1.9619,5.2998
11.1833,17.7961,10.1168,2.2735,13.3019,0.0303,0.3394,-0.2119,-0.0199,44.4424,17.5639,9.6073,17.9031,8.7808
12.8533,18.6911,14.0715,8.3016,17.5023,0.0099,-0.3227,-2.3356,-1.0678,68.1621,23.3042,8.7635,26.0445,9.4905
8.6374,12.0281,10.5083,7.9724,12.1028,-0.002,-0.0812,-2.0466,-0.8099,58.2227,19.145,5.3508,22.2346,6.575
-0.1541,0.3145,0.6462,1.3485,0.7469,-0.0046,0.8802,-0.298,0.2155,24.9889,8.2326,-0.5851,11.6248,1.1193
-5.7159,-8.2574,-5.4763,-1.2887,-7.3479,-0.0112,1.3671,0.5942,0.6364,-4.2619,-2.1733,-5.5522,-1.196,-3.7587
-5.6726,-9.6672,-4.6826,0.4973,-6.4334,-0.0178,0.6848,-0.5109,-0.2351,-16.0193,-6.8981,-6.2527,-12.3536,-5.9515
-6.1485,-8.039,-4.1977,-2.2187,-0.1528,-0.0084,-0.5504,-2.7269,-1.7826,-18.9243,-7.2318,-4.7843,-18.6632,-6.7888
-9.2498,-7.2719,-6.9562,-8.0067,2.4264,0.0101,-1.1415,-3.1725,-2.1786,-22.9584,-7.0572,-3.6434,-17.6703,-6.876
-8.7926,-5.3991,-6.9089,-6.7857,-2.0802,0.0149,-0.7158,0.0353,-0.2847,-24.5981,-6.6695,-0.8719,-8.7596,-3.8598
-2.0298,-1.1987,-1.82,-0.0204,-6.5835,0.0024,0.0234,3.9304,2.0532,-18.7454,-4.4605,3.9458,1.5343,1.7774
5.2131,1.2633,2.2519,1.6161,-4.3126,-0.0154,0.3804,4.0493,2.0958,-11.1558,-2.0718,5.9742,4.3355,5.1977
8.1511,0.5217,2.4212,-1.263,0.478,-0.0294,0.3264,1.5082,0.5648,-7.2818,-1.862,3.196,2.7305,4.9147
8.9373,2.8886,3.645,1.3553,1.1055,-0.0259,0.114,0.8689,0.3394,0.007,-1.1916,0.8663,7.0577,4.8583
10.1508,11.4336,8.262,8.6515,0.7045,0.0046,-0.0863,2.0111,1.3393,16.9496,3.7949,2.7634,14.949,6.4492
9.6208,16.0581,10.4366,9.4095,4.2937,0.0312,-0.1124,1.2253,1.0839,32.2816,10.2376,5.3839,14.7886,6.3653
5.7219,6.9772,6.0013,1.7334,7.1145,0.0084,0.1305,-1.1312,-0.394,31.0382,11.6442,4.8902,7.6621,3.8198
1.7062,-6.4977,-0.0598,-4.0372,3.6668,-0.0404,0.4102,-1.5935,-0.8464,17.279,7.2847,2.3127,4.7247,1.9351
-0.0832,-7.0508,-1.6774,-2.1351,-0.6344,-0.0391,0.3242,-0.3928,-0.1861,6.3598,2.1283,-0.4831,6.1184,1.0402
-2.0455,3.722,-0.2863,2.437,1.106,0.0163,-0.1096,-0.3175,-0.1964,3.016,-0.3467,-2.6726,3.7628,-1.1338
-5.316,7.7876,-0.1649,4.334,4.7129,0.0405,-0.3884,-1.0122,-0.8398,1.1862,-0.5459,-2.3779,-1.2836,-3.3661
-7.337,-1.4003,-1.8815,3.3187,2.4605,-0.0003,-0.2404,-0.3988,-0.6705,-3.9756,-0.6654,0.5003,-3.8133,-3.2573
-7.0951,-10.844,-3.9398,0.1654,-3.602,-0.0342,0.0322,0.7219,0.1035,-12.7116,-2.6902,1.6476,-6.489,-2.6723
-5.2536,-8.6618,-5.0197,-3.9181,-5.3263,-0.0092,0.0985,0.3623,0.1333,-20.584,-6.1215,-1.5875,-10.938,-3.5408
-1.3866,0.9025,-3.6598,-5.2896,-1.5703,0.0295,0.0318,-0.6356,-0.4052,-20.9233,-7.8,-5.0095,-10.7056,-3.3358
2.9319,6.5056,-0.124,-1.8129,1.1191,0.0282,0.0219,-0.0249,-0.1668,-13.2896,-5.682,-3.2075,-3.6513,-0.2677
4.5497,4.7462,3.0976,3.245,-0.3944,-0.001,0.04,2.0064,0.9727,-3.1281,-0.9417,2.952,4.0739,3.3963
5.0283,1.1352,4.9801,5.5128,-2.4155,-0.0251,0.0072,3.2484,1.8451,8.1818,4.2827,7.9638,9.9186,5.9852
7.8234,1.0001,6.669,5.1362,-2.1713,-0.0319,0.0156,2.8033,1.8979,21.108,8.3912,8.5309,15.0909,7.7568
10.0683,3.9137,7.7859,4.7331,-0.9948,-0.0184,0.0789,1.6262,1.4851,28.2497,9.5718,6.0087,15.348,7.4398
6.8194,5.4877,6.2722,4.3471,0.569,0.0043,-0.0813,0.35,0.654,21.2635,6.7192,3.1589,7.1237,3.8481
1.2252,3.9379,2.8635,2.779,3.6409,0.009,-0.5007,-0.8476,-0.5511,5.9555,1.8811,1.4867,-1.5557,0.1463
1.3413,3.6565,1.9962,2.3011,6.8001,-0.0079,-0.535,-0.9055,-1.0908,-1.8003,-0.5959,1.6914,-0.7302,0.7504
7.2487,7.1015,5.3413,5.687,6.6196,-0.0199,0.2303,0.5616,-0.2793,3.3794,0.8209,3.1675,4.9402,4.141
9.1188,7.3948,7.1207,8.8013,2.6208,-0.0169,1.0187,1.5622,0.6531,8.8449,2.3303,2.9946,3.9063,4.1859
1.6304,-0.0054,1.8828,4.9866,-1.624,-0.0117,0.8783,0.7804,0.4461,2.1905,0.221,-0.2159,-1.8582,-0.2042
-6.4284,-5.7638,-4.9817,-2.3694,-2.5513,-0.0063,0.1629,0.1438,-0.0532,-10.1768,-3.1356,-2.2912,-1.8414,-2.8279
-5.1381,-1.5593,-4.2448,-3.3828,-0.5012,0.0043,-0.1502,1.1938,0.3108,-13.1842,-2.9838,0.8523,2.002,-0.3841
0.4301,4.1196,1.3211,1.2114,1.0722,0.0103,0.0255,2.1276,0.8626,-5.8404,0.3052,5.5018,0.6431,2.2757
-0.1661,1.2422,1.752,1.737,0.4494,0.0029,0.1235,1.4514,0.6843,1.1135,2.8172,5.7684,-1.5431,1.4189
-3.4866,-3.7264,-1.4972,-1.2706,-0.2965,-0.0116,-0.0111,0.7562,0.3804,4.7337,3.6305,3.5896,4.4887,0.8431
0.7326,-0.9817,1.0687,1.4934,0.202,-0.0223,-0.1254,1.2697,0.6495,8.7288,3.7536,3.7279,11.1118,3.4556
9.6415,5.5298,7.8883,8.4269,-0.0926,-0.0197,-0.0807,1.663,0.9876,9.6781,2.1361,4.0767,6.288,5.2611
12.5213,8.0005,9.3694,9.4341,-1.4441,-0.004,0.0601,1.1397,0.8719,4.4657,-0.974,1.3958,-1.8887,3.7904
8.6519,7.1299,5.1789,4.4508,-0.2072,0.0047,0.1067,0.6587,0.4814,1.0647,-1.7997,-0.8564,1.6257,2.7851
3.7386,4.8275,1.4089,0.6578,3.6587,-0.0066,-0.0632,0.3174,-0.0855,3.322,0.267,-0.0287,10.307,3.2491
-1.2544,-0.1513,-1.224,-0.8224,4.5527,-0.0173,-0.1623,-0.436,-0.6777,1.8394,0.8232,0.386,7.2809,1.1568
-5.1889,-4.5394,-3.1844,-1.0674,0.8165,-0.0114,0.1791,-0.4444,-0.5392,-5.2858,-0.9244,-0.4283,-3.2835,-2.3688
-3.4535,-3.5562,-1.5616,1.5496,-2.9553,-0.0081,0.6495,1.421,0.6675,-6.5855,-0.8804,1.5173,-3.8542,-1.2669
2.6188,-0.6693,2.392,4.4216,-4.7176,-0.0194,0.6272,3.5052,1.9417,-1.9406,0.8173,5.4118,4.0747,3.5399
5.7573,-1.0397,3.4718,3.0934,-5.2558,-0.026,0.2012,3.5232,2.01,-4.4591,-0.2264,6.2088,3.9456,5.0727
4.6318,-1.169,2.3241,1.0947,-2.1649,-0.0206,-0.1531,1.7991,0.8029,-12.1844,-3.1633,4.2157,-3.8738,2.7284
4.7832,3.9956,3.7196,3.3349,5.0138,-0.0159,-0.4456,0.3527,-0.4352,-7.9845,-2.339,3.7699,-2.5336,2.5095
8.9736,11.7552,7.6302,6.0986,9.7509,-0.0085,-0.73,0.3419,-0.4145,10.0344,3.1198,5.5681,10.681,6.4025
14.8228,17.1173,11.3405,6.4367,8.3338,0.0066,-0.5948,1.4253,0.7452,26.755,8.665,7.6536,20.9867,10.6228
19.4288,19.6909,15.2207,9.9732,5.9913,0.0094,0.0873,2.5561,1.7605,37.6324,12.4278,9.6621,22.3287,12.5995
20.5338,20.1283,18.7298,17.4905,6.7734,-0.0074,0.7775,2.7964,1.8684,49.2431,16.1284,11.224,21.9176,12.5786
15.4035,15.9742,16.4721,17.6716,7.1282,-0.0134,1.0106,1.7092,1.2823,54.5611,18.066,9.6969,20.4375,9.7438
3.8536,5.7074,5.6409,4.88,3.5105,0.0073,0.7569,-0.3836,0.2953,37.3833,13.0556,3.2563,10.9125,2.9243
-8.036,-6.2834,-6.7282,-8.7707,-1.8616,0.0234,0.2137,-2.1356,-0.7597,1.685,1.2757,-4.6479,-4.9979,-5.0324
-12.6748,-13.3569,-11.114,-9.888,-5.2526,0.0057,-0.2063,-1.9825,-1.153,-28.5667,-9.4307,-7.4141,-17.3456,-8.8361
-10.345,-14.2683,-7.8471,-1.9821,-6.1698,-0.0285,-0.1642,-0.0692,-0.5888,-39.1446,-12.9471,-3.7315,-20.8489,-7.4458
-8.1657,-12.7786,-5.2735,2.2355,-6.1188,-0.0422,0.1017,1.5315,0.127,-37.3129,-11.6461,-0.1241,-17.626,-5.0662
-8.9947,-10.5074,-6.8704,-0.5034,-5.5047,-0.027,0.1437,1.5559,0.1977,-35.7262,-11.2202,-1.5303,-12.2267,-4.652
-8.0289,-5.5881,-7.3076,-1.9553,-4.0855,-0.0067,0.028,1.4057,0.1177,-36.1155,-12.3645,-3.8981,-7.4406,-4.0775
-1.8076,1.6812,-2.1107,3.1649,-2.6215,-0.0032,0.0886,2.7156,0.8229,-29.4334,-10.5066,-0.998,-2.0221,-0.3592
5.9684,7.5329,5.1215,8.5625,-0.9725,-0.0095,0.2918,4.2056,1.8502,-9.7902,-2.8625,5.7698,5.779,5.199
10.416,10.0461,8.5882,6.9191,2.8589,-0.0092,0.3476,3.4516,1.76,14.1596,6.5564,9.8223,13.2085,8.7696
11.9627,11.0446,8.8454,3.1947,8.1229,-0.0075,0.1448,1.0208,0.4877,26.9909,10.6386,8.6182,15.8353,9.0722
13.4048,12.0654,10.1894,6.402,9.9764,-0.0159,-0.1746,-0.1891,-0.3537,24.7637,7.8058,5.7677,13.1762,7.9563
15.093,12.8411,12.7642,12.544,6.5439,-0.02,-0.2966,0.8043,0.244,19.1222,4.5282,5.5128,9.1899,7.5674
15.8721,13.3406,13.3209,11.28,2.2129,-0.002,0.0312,2.2745,1.509,21.9657,6.7998,7.8417,8.885,8.5486
14.5353,13.2172,11.1943,4.9404,1.2243,0.0197,0.5172,2.5181,2.0626,31.6015,11.9982,9.0082,13.4372,9.3699
10.1846,11.0611,8.5668,3.3779,2.9732,0.017,0.4804,1.4389,1.4466,38.765,14.2864,7.1829,18.4117,8.0538
4.6537,6.7421,6.8069,5.9693,4.2918,-0.0002,-0.0791,0.1313,0.4849,38.8746,13.443,5.4069,17.6,5.2131
0.6915,1.1632,4.6225,5.0724,2.615,-0.0061,-0.3066,-0.5966,-0.0069,28.272,10.2896,4.6967,6.7299,1.8144
-3.6049,-5.8784,-0.8308,-0.1455,-1.647,-0.0017,0.0627,-1.4129,-0.5623,1.3067,1.1362,-0.2285,-12.1495,-3.8989
-10.5658,-12.9319,-9.1426,-5.1495,-4.625,-0.0048,0.1862,-2.719,-1.7317,-33.0523,-12.5496,-9.8442,-25.6327,-10.7256
-14.9492,-15.2842,-13.9356,-6.797,-4.176,-0.0203,-0.2943,-2.4797,-2.1605,-50.0639,-19.5788,-13.5434,-20.0581,-11.5578
-10.6854,-10.7152,-10.1044,-3.3228,-3.5022,-0.0352,-0.4911,0.7747,-0.5127,-41.0587,-14.8779,-5.7659,-3.0488,-4.4035
-1.6491,-2.5208,-1.6101,3.6469,-4.7532,-0.0288,0.1497,4.1281,1.6699,-24.097,-7.2107,3.2982,3.5815,2.1649
3.8932,4.8843,3.8051,7.5239,-3.9415,0.0022,0.8416,3.8561,1.9098,-12.817,-3.4972,4.2568,-3.7577,2.163
4.2222,8.6824,4.2383,4.7023,1.7906,0.027,0.7329,1.0298,0.4439,-2.14,-0.2182,2.0395,-7.1051,0.4306
2.7674,7.7593,2.8239,-0.1942,7.56,0.0198,0.1149,-0.6917,-0.641,9.3355,4.573,3.2265,1.0181,1.7694
1.4491,3.9468,1.5009,-1.5749,6.8555,0.0009,-0.1981,-0.4741,-0.5492,10.5025,5.2667,4.1018,6.3274,2.7908
0.1105,-0.0417,0.1308,0.5769,-0.1679,-0.0026,0.0061,0.2723,0.0827,-2.2108,-0.69,0.3492,-0.4726,0.1211
-0.5881,-0.6069,0.0083,-0.2665,-1.6977,0.0085,-0.2026,-0.0669,0.1253,-1.8663,-0.5642,-0.0096,-3.8132,-0.912
6.6324,6.0841,4.062,0.4755,4.8188,0.0036,0.0374,-1.0602,-0.4725,15.7385,4.5016,0.3715,6.155,3.0109
1.9726,2.4065,1.5473,1.0139,4.0286,-0.0059,0.0615,-0.8027,-0.5813,8.1673,2.4085,0.1349,3.7131,1.0887
-8.2914,-7.3623,-4.8849,0.5061,-1.0987,-0.0186,-0.0657,-0.3963,-0.661,-14.9131,-5.0168,-2.3765,-6.5357,-4.4598
-11.7465,-11.9776,-8.4415,-2.2875,-4.7747,-0.0161,-0.154,-0.5882,-0.755,-30.1554,-10.4671,-5.322,-14.6107,-7.5515
-8.1225,-8.1525,-7.2498,-5.929,-5.6058,0.0106,-0.1604,-0.1311,-0.2195,-31.2096,-9.8976,-3.793,-16.9888,-6.0613
-4.1096,-1.3655,-3.5925,-5.2604,-3.3534,0.0276,-0.1613,1.3085,0.6311,-21.6992,-4.8565,1.9063,-10.8596,-1.9243
-0.4111,3.2865,1.1096,1.7285,1.1879,0.0046,-0.1847,2.0381,0.7992,-3.8212,0.7518,5.4636,3.2527,2.4149
5.8436,6.4902,6.2777,8.5508,4.3733,-0.0231,-0.1968,1.2616,0.4071,14.9771,4.3981,4.4733,13.7235,5.349
12.8743,11.0896,10.2811,8.347,4.9658,-0.0078,-0.1864,0.1481,0.2654,25.8659,6.7554,3.2993,12.5745,6.7139
15.3471,14.7065,11.0435,3.7158,5.9458,0.0246,-0.178,-0.6838,0.1457,29.7985,8.9206,3.6565,8.2566,6.8192
10.5162,11.0854,7.4413,0.8156,6.9957,0.023,-0.1809,-1.9378,-0.6518,28.0953,8.4215,1.2124,6.7398,4.1997
1.525,0.6815,0.9443,-0.8339,3.4582,0.0035,-0.1789,-3.1269,-1.4387,15.1184,3.0273,-4.4082,0.1348,-1.5383
-4.7717,-7.8876,-3.9796,-3.8792,-4.1211,0.0041,-0.1692,-2.3508,-0.874,-4.6387,-2.8534,-5.9253,-11.3811,-5.6096
-5.474,-9.8933,-4.5805,-5.538,-8.3656,0.0058,-0.1702,0.134,0.5287,-14.2177,-3.5638,-0.9018,-13.1127,-3.991
-4.9663,-8.6766,-3.7836,-3.6835,-5.9108,-0.0131,-0.1795,1.4534,0.9032,-10.6106,-1.4348,2.6541,-3.0007,-0.7368
-6.3262,-6.6283,-4.5121,-2.223,-2.1588,-0.0168,-0.1716,0.6674,0.1561,-8.5126,-1.8594,0.2747,1.8605,-1.2094
-6.1168,-3.43,-4.292,-2.5886,-2.8126,0.013,-0.1475,0.0426,-0.0285,-13.6316,-4.2162,-2.0607,-6.4314,-3.4876
-3.5082,-2.1783,-1.8469,-0.3744,-6.3881,0.0267,-0.1361,0.5819,0.5587,-18.1089,-5.9817,-1.5593,-15.2355,-4.1688
-3.351,-4.7229,-1.4398,3.9115,-7.1398,-0.0018,-0.144,0.5678,0.3892,-19.08,-8.0987,-3.5502,-12.6137,-4.3703
-4.249,-4.5169,-3.4243,3.759,-2.6035,-0.024,-0.1525,-0.3544,-0.5676,-17.083,-9.0891,-7.0461,-1.7438,-3.6837
1.4847,3.6427,-0.8588,-0.3604,3.3696,-0.0056,-0.157,-0.1051,-0.4634,-4.9684,-3.3106,-2.8508,8.3112,1.474
11.1093,12.2649,7.0471,-1.2306,5.4628,0.0207,-0.1635,1.5586,0.9976,18.4544,8.3323,8.2683,13.3139,8.6912
12.041,10.9473,10.2734,1.2551,3.7462,0.0201,-0.1614,1.7421,1.5714,34.8057,15.1118,12.4851,12.6098,9.5373
3.2068,2.494,4.4522,0.9532,2.7341,0.006,-0.1432,-0.8878,0.0087,28.3401,10.643,4.2896,5.8673,2.5763
-1.8726,-1.2095,-0.7408,-1.5135,3.7069,0.0055,-0.1274,-3.284,-1.6594,11.1628,2.5579,-4.0774,-3.8015,-3.2525
2.254,2.412,1.7161,-0.497,2.7422,0.0166,-0.1199,-2.3363,-1.1344,3.8251,0.2544,-2.5065,-8.7502,-2.0863
3.7217,2.4391,3.4976,2.449,-2.0346,0.0133,-0.098,0.1692,0.4217,1.8271,0.3045,1.0688,-6.1669,0.1684
-6.5302,-8.0625,-4.4467,0.3849,-6.8019,-0.0109,-0.0811,0.2585,0.2825,-11.7873,-5.1974,-4.2137,-4.0266,-3.9911
-19.0521,-19.5245,-15.3437,-6.7859,-8.474,-0.024,-0.1235,-1.6972,-1.1512,-31.628,-12.7551,-12.5535,-8.7942,-10.963
-19.86,-18.7282,-16.7794,-11.4113,-8.4774,-0.0028,-0.1547,-1.5294,-1.0408,-38.3001,-13.3541,-11.1855,-13.6706,-11.3257
-10.0993,-7.4238,-8.9447,-8.656,-7.2286,0.0227,-0.0326,1.5369,0.8044,-29.5302,-7.6389,-1.2776,-9.4793,-4.2465
-1.0156,1.4001,-1.1837,-1.7193,-2.8264,0.0114,0.1119,3.2406,1.5596,-15.1422,-2.343,5.1777,0.5195,2.2175
2.7211,1.5649,2.2399,3.0553,2.247,-0.0222,-0.0342,1.1871,0.2976,1.1214,0.8643,3.5204,6.3105,3.2626
3.8784,-1.2499,2.9937,2.6474,2.5152,-0.0289,-0.3349,-1.5179,-0.7723,13.4077,2.9013,-0.5491,4.4482,1.4452
4.0077,-0.4356,2.4013,-0.3126,-0.7035,-0.001,-0.257,-1.5613,-0.3501,12.2726,2.6377,-1.7793,-0.1971,0.3018
3.3771,3.7379,1.8605,-0.3606,-0.705,0.0195,0.1997,0.0354,0.3167,3.5215,0.8922,-0.3343,-1.3924,0.6306
3.1772,6.8512,2.9434,3.9218,2.9195,0.0104,0.3684,0.6724,0.1292,0.5613,-0.0004,1.0459,0.6481,1.3028
2.5994,5.7115,3.6619,7.0407,3.9919,-0.0035,-0.0436,-0.036,-0.4399,-0.5454,-1.4548,0.1718,-0.8265,0.3784
1.2205,2.792,2.1878,4.7159,1.4534,0.0013,-0.5028,-0.5823,-0.562,-6.7843,-3.916,-1.3479,-5.7982,-1.2589
4.3924,6.1715,3.589,1.8919,1.7844,0.0154,-0.4315,0.3968,0.1704,-1.0605,-0.4172,2.1829,-1.2532,1.8943
15.2103,17.9055,12.4304,5.2041,7.9837,0.0198,0.0654,2.2884,1.4338,34.104,13.8033,12.091,18.4979,11.4972
23.3662,24.9992,20.8131,10.7249,13.6632,0.0102,0.4077,2.3202,1.8475,76.5208,28.9075,18.7582,35.4912,18.12
15.9707,15.2401,16.5409,9.4777,11.3803,-0.0022,0.2638,-0.7504,0.5037,82.6141,29.1184,12.1507,29.9372,12.0174
-2.4878,-2.7502,1.6613,2.128,2.4954,-0.002,-0.1646,-3.8792,-1.3138,42.2911,12.4532,-3.2246,7.8244,-2.1472
-15.2256,-11.976,-10.1506,-3.654,-4.9572,0.0109,-0.5754,-4.0905,-1.9555,-10.6459,-7.2635,-13.7702,-11.2143,-11.6643
-16.1808,-12.2787,-13.1748,-6.6787,-6.528,0.0171,-0.809,-2.9692,-1.8749,-43.118,-17.8447,-14.7049,-21.6414,-13.0359
-13.8286,-14.8349,-13.511,-10.3874,-5.5734,0.0025,-0.6158,-2.7247,-2.0323,-54.573,-19.9291,-11.9944,-28.817,-12.1242
-13.5111,-19.6139,-14.6166,-12.515,-6.8617,-0.0216,0.0684,-1.6798,-1.5783,-58.0002,-19.2181,-9.2547,-29.6612,-10.9426
-10.1324,-16.8662,-12.134,-9.0201,-9.8343,-0.0319,0.6909,1.9195,0.4581,-52.8168,-16.2087,-4.0873,-17.2912,-5.7563
-0.2505,-5.9014,-4.2212,-3.1765,-10.1013,-0.0244,0.7791,5.5415,2.7547,-33.584,-8.9905,3.6192,1.4447,3.1368
9.5614,3.5309,3.6035,-0.5366,-5.2294,-0.0152,0.662,5.7405,3.158,-8.1113,0.1733,9.3144,11.3638,9.3324
11.3582,7.1196,6.8559,0.5357,2.4318,-0.0087,0.6739,2.9445,1.6399,12.9282,7.4433,10.0967,9.9537,8.9176
7.1414,10.4572,8.0525,5.2366,8.2536,0.0089,0.4645,0.1254,0.0907,31.2539,12.3923,7.5455,8.991,5.2756
5.5373,16.1447,10.7041,12.0634,10.2833,0.0302,-0.1007,-1.2371,-0.4038,48.9749,15.7584,4.57,14.7799,3.7692
8.7857,17.6559,12.5476,13.4393,9.8641,0.0271,-0.4278,-1.7047,-0.4419,54.9683,15.947,2.753,19.1798,4.91
9.7238,10.3309,9.1371,6.6708,7.3902,0.0018,-0.2747,-1.7384,-0.5807,38.8599,11.0998,1.7351,13.9778,4.9006
3.226,-0.774,0.9983,-2.3726,2.1879,-0.0116,-0.1931,-1.2642,-0.5917,7.9539,2.3312,-0.1732,2.601,1.4217
-5.8071,-8.2588,-6.4953,-7.4265,-3.2721,-0.004,-0.3749,-0.7193,-0.4826,-19.7157,-6.2835,-3.2511,-7.6998,-3.5012
-9.3245,-9.8588,-8.6301,-6.8519,-5.1044,0.0009,-0.2212,-0.4115,-0.4651,-31.2343,-10.2207,-4.8389,-13.8334,-6.112
-6.078,-6.7748,-5.2082,-1.502,-3.5003,-0.0085,0.5024,0.3551,-0.1997,-25.9785,-8.3559,-2.9027,-13.6761,-4.7927
-1.0954,-1.9039,-0.4584,4.5958,-1.5846,-0.0198,1.1076,1.6898,0.4497,-14.5168,-4.3818,0.4673,-7.0537,-1.3157
1.4125,0.4546,1.0574,4.9655,-0.9527,-0.0209,0.9574,2.1709,0.7897,-8.1819,-2.3878,1.6945,-0.0256,1.1699
1.2668,-0.8465,-0.6304,-0.3885,-1.2321,-0.0127,0.2286,1.0473,0.4136,-7.4869,-2.5741,0.0401,2.0004,1.2364
0.2577,-1.4753,-1.7052,-3.2001,-1.0062,-0.0016,-0.4795,-0.4718,-0.2338,-6.8885,-3.2865,-2.3921,0.6442,-0.1195
0.1101,2.0535,-0.084,-0.005,1.2448,0.0097,-0.7041,-1.0244,-0.6469,-5.308,-3.3486,-2.6867,-1.6798,-1.0505
2.3944,7.3071,3.0824,2.7336,4.6401,0.0202,-0.34,-0.4098,-0.4954,-0.9967,-0.4152,1.3205,-3.5302,0.3284
7.1537,10.1645,6.4139,1.6284,6.4887,0.0201,0.2446,0.8645,0.3438,12.6532,7.0044,8.0576,1.3054,4.7821
10.7262,9.981,8.8321,2.4889,6.5646,-0.0009,0.5332,1.7215,1.1045,33.1942,14.4194,11.2709,15.6563,9.3034
9.3946,8.6027,9.0403,7.9907,7.0412,-0.0275,0.4792,1.0324,0.7251,45.8767,15.7912,7.3385,27.4599,9.2171
6.1809,7.9723,7.9053,11.1354,8.2224,-0.0285,0.4051,-0.6656,-0.341,44.6259,13.0572,2.0829,24.058,5.4635
6.7009,8.4815,7.4239,6.2956,8.2923,-0.0022,0.4196,-1.5217,-0.6659,37.7455,12.1099,2.5589,11.6112,3.6883
7.7816,6.7279,5.4213,-2.8193,6.3518,0.0181,0.4201,-1.2788,-0.3187,27.3713,11.2245,4.9346,3.1146,3.9929
1.3538,-1.0806,-1.5593,-8.8544,2.4833,0.0111,0.3855,-1.2808,-0.4956,6.37,4.2731,1.1292,-1.846,0.65
-10.2534,-11.0233,-9.7118,-7.8675,-3.2732,-0.0063,0.3526,-1.3129,-0.9238,-21.4234,-7.0816,-6.526,-9.7312,-6.4913
-16.2272,-14.5671,-12.02,-2.31,-9.0346,-0.0082,0.4235,-0.0452,-0.4155,-40.901,-14.7813,-9.2959,-18.7676,-10.8604
-13.2517,-11.059,-9.3247,0.1098,-10.7521,0.0038,0.6984,1.6539,0.5484,-45.592,-15.3663,-6.0309,-23.0277,-9.5519
-6.7048,-6.7429,-6.8183,-3.742,-6.9306,0.006,0.8878,1.9133,0.6642,-39.2902,-11.6886,-2.1938,-18.6648,-5.1442
0.4648,-2.3628,-3.4779,-5.5154,-0.8344,-0.0102,0.5209,1.32,0.2577,-23.2469,-6.4326,0.2778,-4.5151,0.5693
8.6854,6.1394,4.5218,2.6075,4.4836,-0.0252,-0.1769,1.4362,0.3449,2.0822,0.3536,3.7295,12.4477,6.6656
16.1697,16.9959,14.6318,14.5163,9.2747,-0.0202,-0.4115,1.8216,0.682,28.9702,8.6144,8.9728,19.8299,10.8045
20.5758,24.0805,20.6753,18.9183,13.4401,-0.0006,0.0057,1.4992,0.687,47.9665,16.2854,13.5356,17.22,12.2535
21.9477,25.6822,20.5778,14.5902,14.9481,0.0163,0.4797,0.8654,0.5874,56.4359,20.3186,14.0938,17.1404,12.7566
20.0596,23.0883,16.3735,8.5573,13.1816,0.0203,0.6056,0.2522,0.4783,56.0691,19.337,9.6507,22.8678,12.1564
13.5722,15.3378,10.1518,4.8685,9.5811,0.0096,0.4896,-0.8629,-0.0733,47.2413,14.6404,2.9811,22.8531,8.2509
3.5819,2.8802,2.7852,1.1762,5.3355,-0.0075,0.2938,-2.3105,-0.9897,29.1291,8.2206,-2.0616,10.9294,1.5659
-5.6954,-7.991,-4.555,-4.6039,1.2182,-0.0132,0.1693,-2.8137,-1.4977,3.9226,1.1255,-4.2263,-4.4666,-4.2504
-10.3439,-10.7415,-8.7869,-7.7551,-2.0065,-0.0027,0.3181,-1.4953,-1.0552,-19.63,-5.3777,-4.2851,-13.3998,-6.6351
-10.0177,-6.8057,-7.6633,-3.086,-4.1943,0.007,0.6119,0.7743,-0.0255,-31.0489,-9.2224,-3.1289,-14.9634,-6.2492
-8.513,-4.211,-4.8826,3.1238,-5.3416,0.0036,0.6173,1.8564,0.5353,-30.2768,-9.8605,-2.34,-13.6399,-5.5288
-8.7899,-7.2881,-6.0049,0.2202,-4.9993,-0.0075,0.3262,1.0699,0.1714,-27.3937,-8.8921,-2.7318,-11.2785,-5.2024
-7.2173,-10.142,-8.0911,-7.7489,-2.6935,-0.0218,0.2143,0.5517,-0.1584,-24.9267,-6.6386,-1.2829,-5.0238,-2.5161
1.1306,-4.1478,-2.9857,-6.801,1.7141,-0.0348,0.3789,1.8612,0.4279,-12.3361,-1.0658,4.8837,6.1501,4.2433
12.858,9.5107,8.7084,4.2883,7.0052,-0.0297,0.4496,3.145,1.2397,14.4298,7.6641,11.8764,15.9979,11.0188
20.4442,21.1672,17.8736,13.5705,10.4557,-0.0011,0.4097,2.3161,1.2576,41.2055,14.9059,13.1859,17.8303,12.8241
22.1458,25.0906,19.6958,14.6609,11.0044,0.0258,0.5004,0.4236,0.6848,52.8757,16.8746,9.0501,14.9375,10.833
19.6747,22.788,16.4346,11.0084,10.5901,0.0278,0.4927,-0.544,0.2198,51.2794,15.4965,5.2222,16.6496,9.2983
13.0196,16.2014,10.9428,6.8582,10.3678,0.0086,0.2045,-0.581,-0.0644,45.9946,14.4303,4.3992,22.6485,8.4239
3.9342,6.3175,4.8512,3.5958,8.9492,-0.0133,0.1931,-0.8505,-0.5038,36.5622,12.7281,3.993,19.5562,5.0755
-3.0405,-3.1352,-0.4984,0.3008,5.2719,-0.0185,0.6772,-1.785,-1.1419,16.8594,6.9371,0.9613,0.8675,-1.2775
-6.2945,-8.1062,-4.7264,-4.206,-0.026,-0.0012,0.7348,-2.5253,-1.4426,-7.9093,-1.931,-3.9714,-17.7949,-6.7208
-7.9363,-9.2877,-7.4642,-7.0891,-5.0909,0.0123,-0.0722,-1.8069,-0.8857,-23.323,-8.2975,-6.7589,-18.0491,-7.4801
-8.9082,-9.2474,-7.4589,-4.1073,-6.7911,-0.0033,-0.5478,0.1941,0.0616,-24.2009,-8.8204,-4.7694,-6.2114,-4.7462
-7.6574,-6.5319,-4.4131,2.6296,-3.4491,-0.0239,0.2234,1.715,0.4274,-18.6218,-5.7521,-0.3003,-2.294,-2.5733
-3.3447,0.8827,0.0355,6.9875,1.608,-0.0117,1.213,1.9699,0.2784,-14.1699,-3.0754,2.8072,-8.3078,-1.7798
2.1029,8.557,3.5983,7.0018,3.6919,0.0147,1.1563,2.1714,0.5133,-10.5789,-1.7001,4.4886,-8.6758,0.3945
6.5396,10.6592,5.0863,4.2838,3.2974,0.0129,0.5012,3.0491,1.2095,-4.8597,0.3322,6.8927,2.5199,5.0341
10.7417,9.7606,5.7805,0.4977,4.1993,-0.0073,0.293,3.4515,1.5455,4.4616,4.0417,9.3593,14.5577,9.7244
15.4885,11.7496,7.9208,-0.9127,7.0785,-0.0111,0.5024,2.3316,1.1012,17.1063,7.8782,9.1261,18.3472,11.6446
17.5966,14.6995,10.85,3.1626,9.7844,-0.0058,0.5918,0.2422,0.1285,29.8105,10.0217,5.8953,15.8875,9.9986
14.2424,13.3667,11.4258,9.0315,11.1852,-0.0124,0.515,-1.6345,-0.9357,36.7337,10.3341,2.2966,11.9846,6.1855
8.5389,9.8674,9.1051,10.2378,10.979,-0.015,0.4135,-2.4117,-1.4703,34.7994,9.5102,0.6102,8.3552,2.8768
5.5506,9.5745,7.0771,7.866,8.6047,0.0038,0.2606,-1.6032,-0.9445,27.7498,8.1891,1.3071,6.1734,2.0165
5.4523,10.8316,6.8913,6.7699,4.5829,0.022,0.1123,0.2945,0.2991,21.3486,7.1013,3.5976,6.2864,3.1155
4.2603,7.3387,5.4021,4.941,0.5153,0.0169,0.1075,1.6995,1.1761,14.7647,5.9616,5.3274,6.1827,3.6907
-0.123,-1.5105,0.2175,-1.0451,-2.5498,0.0001,0.2165,1.461,0.9982,2.7586,2.8831,3.9496,1.4569,1.5831
-4.4058,-8.4573,-4.6228,-5.8517,-3.9628,-0.0085,0.2931,0.1667,0.1509,-11.4396,-2.036,0.0988,-7.6938,-2.2698
-3.5795,-7.0704,-3.6009,-3.4567,-3.066,-0.0063,0.2661,-0.5682,-0.3563,-15.0593,-4.4242,-1.839,-13.0535,-3.7639
1.8651,0.0977,1.5077,1.9467,-0.6993,-0.0023,0.1893,0.0266,-0.0108,-4.4843,-1.7232,0.0956,-6.8276,-0.6589
5.5567,4.6085,3.7644,3.3846,0.4986,-0.0036,0.1734,1.0223,0.5901,5.187,1.1602,1.5839,5.2272,3.1833
3.3773,2.6545,0.8406,1.3277,-0.9569,-0.0072,0.199,1.1757,0.6342,-0.0207,-1.2843,-1.0859,8.8954,2.6324
-1.4824,-1.4907,-2.6357,-0.049,-3.1451,-0.0056,0.0317,0.7214,0.2981,-11.9898,-5.6591,-3.8612,2.3255,-0.8053
-3.4586,-2.9102,-2.2818,0.2616,-2.9003,-0.003,-0.398,0.578,0.1957,-12.5324,-4.5973,-1.1479,-2.5156,-1.5981
-1.811,-1.8392,0.3966,0.345,0.5907,-0.0063,-0.6228,0.3352,0.0521,-0.8417,1.2728,4.0755,-1.3095,0.4868
-0.1654,-0.5279,1.0327,-1.3267,5.35,-0.0082,-0.1522,-1.0001,-0.8129,6.6295,4.396,4.2802,-2.3549,0.6475
-0.3865,0.484,-0.9165,-3.565,8.2342,-0.0009,0.6497,-2.5997,-1.8823,2.4967,2.1091,-0.5273,-7.8778,-1.9773
-0.5581,1.1054,-1.653,-3.1605,6.5371,0.0048,0.8197,-2.3218,-1.6923,-2.3135,-0.4332,-2.8157,-8.4074,-2.7407
0.8167,1.0091,0.7076,0.7694,0.555,-0.0007,0.0933,0.2316,0.0755,0.5984,0.3418,0.6833,0.4316,0.5351
-1.9173,-1.7822,-0.7924,0.5689,0.5042,-0.0061,0.1273,-0.6024,-0.3493,3.2444,0.8661,-1.0373,0.0742,-1.161
-1.4153,-3.2168,-2.9679,-5.8873,7.2388,-0.0154,0.9876,-2.8244,-1.8929,6.9918,3.4305,-2.0934,-2.7345,-1.7971
-3.156,-5.6667,-4.8469,-8.4087,4.4964,-0.0079,1.0232,-2.8329,-1.7149,2.224,2.0537,-3.1905,-6.4865,-3.2106
-6.8983,-8.3107,-6.8401,-7.2559,-1.5519,-0.0007,0.5409,-1.7505,-0.9285,-8.271,-2.3348,-4.8936,-8.1037,-5.0132
-9.4044,-9.2844,-8.2543,-5.7763,-2.6755,-0.0054,0.3945,-1.2478,-0.8121,-14.3259,-4.9782,-6.0731,-6.5457,-5.7805
-7.5216,-7.446,-6.5968,-4.5655,-2.4102,-0.0034,0.6933,-0.6448,-0.4556,-11.3023,-3.3558,-4.2076,-6.395,-4.6519
-1.7447,-3.2195,-1.1473,-0.4951,-4.7823,0.008,0.7847,0.7228,0.6831,-4.3211,-0.507,-0.1156,-8.5588,-2.188
4.3269,1.6523,4.5566,6.0909,-4.8255,0.0026,0.2807,1.5616,1.199,0.0834,-0.3403,2.0909,-5.9403,0.7032
7.4467,5.4183,6.6552,8.9077,0.569,-0.0169,-0.4934,1.0299,0.4499,2.5281,-1.1871,1.9151,3.6933,3.4589
7.1315,7.4665,5.638,4.7335,5.7525,-0.0137,-0.9159,0.1606,-0.2228,8.8966,1.7422,2.9423,11.5894,5.246
5.459,7.6852,4.4408,-0.8519,5.7968,0.0132,-0.6623,-0.2291,-0.0003,20.3677,7.8081,4.8709,12.1311,5.2283
4.2309,5.2642,3.776,-1.8717,2.9182,0.0214,-0.0962,-0.6689,0.228,28.6429,10.7144,3.5055,9.7655,3.5968
2.5574,0.0527,2.2145,-0.346,1.4383,-0.0029,0.1078,-1.5486,-0.3216,25.2246,7.9261,-0.3233,7.1604,1.2905
-0.6819,-4.6637,-0.1323,-0.3394,2.4858,-0.0254,-0.0094,-2.0525,-1.0686,13.191,3.9557,-1.1248,1.7997,-0.7318
-3.382,-4.5625,-1.1687,-0.1226,3.8832,-0.0225,0.2313,-1.2781,-1.0496,3.6015,2.563,1.4321,-3.6314,-1.6054
-3.4678,-1.371,-0.7489,2.2114,3.2667,-0.0113,0.7595,-0.108,-0.4796,1.176,1.8948,1.6355,-3.3687,-1.5554
-3.6184,-2.0166,-1.878,2.4642,1.0255,-0.0111,0.6877,-0.5717,-0.5691,-0.8305,-0.9938,-2.9908,-1.5313,-2.6921
-7.092,-7.7091,-5.7329,-1.7714,-1.7092,-0.0103,-0.035,-2.342,-1.3862,-11.3345,-6.1179,-8.2228,-7.9247,-6.332
-11.0045,-11.1628,-8.7942,-4.9161,-5.9412,0.0067,-0.4141,-2.1818,-1.2352,-29.5278,-11.657,-9.2602,-19.8214,-9.6233
-9.9354,-8.2791,-8.0325,-3.3793,-10.7729,0.0228,-0.1145,1.061,0.5613,-42.4017,-14.6213,-5.7957,-21.4894,-7.9632
-4.2062,-4.1063,-5.114,-2.028,-10.9724,0.0094,0.1879,3.9669,2.1155,-35.8791,-11.3971,-0.6745,-6.2448,-1.3375
1.6442,-2.7261,-1.9163,-3.2075,-4.8292,-0.0234,0.2068,3.6148,1.8971,-9.8963,-1.8121,3.708,12.3158,5.0909
6.5958,0.2664,3.3164,-1.1997,1.9868,-0.0343,0.2468,1.6301,1.0027,21.0343,8.9619,6.8847,18.9993,7.8872
12.0134,8.5038,10.5085,5.2017,5.3636,-0.0102,0.1778,0.5286,0.768,42.2313,15.4198,8.8312,16.5665,8.6454
14.2221,14.8389,13.4508,7.5911,7.2674,0.0166,-0.2991,-0.2921,0.4825,48.0538,16.2315,8.0536,15.3836,8.4649
7.7256,10.3261,7.5509,2.0717,8.7113,0.0166,-0.7014,-2.1098,-0.7488,39.4626,12.7864,3.3585,14.3622,5.0117
-3.6044,-0.6735,-1.7496,-3.6349,7.379,0.0015,-0.4033,-3.617,-1.955,21.7952,6.9572,-2.5424,6.8924,-1.4498
-8.3826,-5.567,-4.8673,-1.8749,3.3737,-0.006,0.2454,-2.8724,-1.7631,4.7328,1.1699,-4.8414,-3.1709,-5.3543
-2.5774,-1.1256,0.0617,5.547,-0.1786,-0.0075,0.4838,-0.456,-0.4379,-2.8436,-2.1527,-2.6107,-6.4162,-3.3027
5.1175,4.3276,5.7203,10.5647,-1.8052,-0.0085,0.2469,1.2453,0.638,-1.4885,-2.5067,0.2914,-3.6344,0.6482
4.1908,2.8926,3.97,5.9716,-2.1717,0,-0.016,0.7419,0.4958,-2.9103,-2.3796,0.0688,-4.4903,0.3666
-5.7525,-5.986,-5.7037,-6.6757,-2.0517,0.0104,-0.0378,-1.1907,-0.6986,-16.9215,-5.1321,-3.4992,-11.8481,-4.6303
-14.8866,-15.4512,-14.4696,-14.7173,-2.6123,-0.002,0.1486,-2.1246,-1.617,-35.3791,-10.249,-7.1203,-17.0936,-8.9432
-14.11,-15.503,-12.8861,-8.1267,-4.5144,-0.0252,0.3084,-0.4462,-0.9151,-38.5862,-12.3772,-6.588,-12.7136,-7.7383
-4.9339,-4.1488,-2.5298,5.4849,-5.2653,-0.0213,0.1393,2.3297,0.8696,-20.4077,-7.6619,-1.1939,-1.6236,-1.8486
3.2729,7.2635,5.4172,9.634,-1.5847,0.0045,-0.3286,2.9204,1.5623,3.0979,0.5795,4.3916,7.728,3.6074
4.4443,7.6371,4.1249,0.8228,4.4706,0.0143,-0.6103,0.405,0.221,12.3989,5.0129,4.652,8.7524,4.3317
1.592,1.0031,-1.305,-8.2118,6.3528,0.007,-0.3448,-2.3261,-1.3803,4.9667,2.5914,-0.1774,1.1148,0.882
1.7905,-0.7662,-1.8742,-6.7282,1.7673,0.0091,0.1888,-2.0473,-1.0422,-3.7461,-1.6574,-3.6557,-6.294,-1.4504
6.6442,4.4342,3.5361,0.9818,-3.3735,0.019,0.4091,0.7465,0.9016,2.0085,-0.2017,-0.4645,-2.8047,1.4597
9.9641,8.4315,7.9946,4.4259,-2.4678,0.015,0.1659,2.6454,2.1169,20.4461,7.6132,6.6512,10.3708,6.8608
7.1256,7.0246,7.1446,2.8662,2.9366,-0.002,-0.117,1.9683,1.5137,35.8367,14.3911,9.9158,21.6363,8.7624
2.3668,4.4499,4.6217,3.8099,5.767,-0.0136,-0.0433,0.4373,0.3736,36.8728,13.8352,6.6084,21.8111,5.9044
1.1212,3.7045,4.2246,7.8336,3.6711,-0.011,0.2042,-0.2664,-0.1267,23.4089,7.0956,1.5614,9.6304,1.548
0.8139,1.7032,2.9104,6.8689,1.213,-0.0037,0.1574,-0.828,-0.5539,2.1353,-0.8228,-1.5023,-6.5835,-2.0741
-2.6182,-3.3143,-2.4472,-1.2091,1.535,-0.005,-0.1251,-1.9683,-1.424,-14.5104,-5.8836,-4.1424,-12.5945,-4.3252
-6.065,-7.1219,-7.6363,-8.4812,1.7865,-0.0085,-0.0861,-2.5607,-1.8024,-17.8024,-6.6742,-6.7612,-7.1455,-4.7423
-6.4306,-7.0262,-8.2007,-9.4902,-1.7115,0.0054,0.2674,-1.5751,-0.959,-17.9034,-6.2204,-6.62,-7.2752,-4.7663
-7.2647,-7.0743,-6.7667,-6.483,-8.0145,0.0257,0.1942,0.3958,0.3991,-28.1911,-8.5565,-3.6158,-17.9945,-5.9947
-9.0901,-9.1043,-5.5747,-1.5805,-12.0685,0.0154,-0.4326,2.376,1.4367,-35.0186,-10.3275,0.0818,-18.7479,-5.4653
-5.6561,-7.179,-1.565,4.731,-9.2785,-0.0203,-0.7326,3.4203,1.8462,-17.4331,-5.04,3.7243,-1.0356,-0.3389
2.6583,0.6346,4.3627,7.9438,-0.8552,-0.0314,-0.3349,2.1279,1.0829,9.5264,3.1404,5.0967,11.211,4.2581
7.3216,6.2483,5.8147,3.8907,6.1542,-0.0069,0.0227,-1.1438,-0.7109,15.4529,4.3601,1.5491,3.1231,2.8403
7.8154,6.5499,3.4676,-2.3427,7.0399,0.0118,-0.0752,-2.8031,-1.558,7.4419,1.0468,-2.422,-3.2003,0.9577
11.7178,10.0132,5.3377,-1.8454,5.3742,0.0092,-0.1073,-0.5833,-0.1419,15.4914,3.9386,0.4478,11.8221,6.1211
17.3154,18.2361,11.6757,5.0657,6.6909,0.0083,0.1813,2.244,1.5621,38.4126,12.6754,7.5207,29.8155,12.935
13.9093,17.5067,12.6958,8.9937,9.0309,0.008,0.3269,1.3981,1.0042,46.4652,16.2134,9.131,24.7292,10.6556
0.3079,1.2906,3.6875,4.1014,5.8955,-0.0085,0.132,-1.8182,-0.927,26.8429,9.6231,2.6951,3.0964,0.3125
-11.7131,-14.8226,-7.7281,-5.1147,-2.2854,-0.0205,-0.0338,-2.9101,-1.5274,-3.6447,-0.9413,-4.8778,-10.6376,-7.4777
-13.4521,-14.8705,-11.9892,-10.4566,-7.1293,-0.0005,0.0214,-1.1475,-0.5436,-23.7301,-7.5053,-6.9359,-10.7053,-7.6772
-8.4607,-5.3692,-8.6653,-8.8476,-4.7985,0.0242,0.089,0.4679,0.1383,-28.1542,-8.367,-3.9158,-9.2541,-4.5993
-5.2078,-2.38,-4.5488,-2.9857,-1.8429,0.0124,0.0368,0.5631,-0.1007,-26.4407,-7.9969,-1.4675,-11.8413,-3.5841
-7.0193,-7.2989,-4.3694,2.3129,-4.1661,-0.0163,-0.0271,0.3776,-0.2773,-28.3754,-10.2122,-3.2716,-14.1139,-5.4312
-9.1186,-8.6385,-5.742,3.1775,-7.4396,-0.0126,-0.0157,0.6976,0.0635,-30.962,-12.1003,-5.724,-13.4846,-6.7699
-4.3768,-1.2337,-3.2844,0.0221,-4.7649,0.0165,0.0102,1.2031,0.5301,-22.4646,-7.847,-2.456,-8.6475,-3.2491
5.7064,6.896,2.8025,-2.6129,1.9669,0.0203,-0.0233,1.5767,0.8228,-1.2157,1.675,5.3343,2.2671,4.4011
10.8754,7.4675,6.5118,-1.5164,5.505,-0.0074,-0.07,1.421,0.7937,18.6149,8.8167,9.2316,13.5173,9.0414
8.3159,4.833,6.407,2.7165,4.078,-0.0187,-0.0281,0.6051,0.5074,26.3995,9.5987,6.0732,15.1724,6.9244
7.6561,8.0414,7.8923,8.0054,2.0937,0.0045,0.062,-0.0974,0.39,27.5775,7.6316,1.7597,9.0521,3.5983
12.201,13.8791,11.2794,10.9545,2.5926,0.0224,0.0265,-0.3691,0.3606,27.7075,6.1976,0.4176,5.3492,3.7499
11.1253,10.6436,8.7143,7.1598,4.2422,0.0084,-0.0947,-1.1835,-0.367,20.1078,3.7576,-0.8533,4.0986,3.1953
-0.9377,-2.6999,-2.2515,-3.1079,4.0601,-0.0139,0.0387,-2.5953,-1.6369,0.9022,-0.9153,-4.4088,-1.4267,-2.013
-12.9604,-13.604,-12.4227,-11.4081,0.4182,-0.0172,0.4339,-2.6442,-1.9,-18.8163,-5.7079,-7.5607,-7.3221,-7.2233
-13.701,-11.9201,-12.3717,-9.022,-4.942,-0.0021,0.4248,-0.3431,-0.4609,-26.5061,-8.3952,-6.9333,-6.2121,-6.8185
-5.7395,-1.4535,-3.6552,1.0839,-7.7063,0.0209,-0.3383,2.0571,1.1692,-22.8942,-8.4411,-2.5778,-4.8818,-2.9888
1.1731,4.7886,3.7027,6.3373,-5.5466,0.0328,-1.0298,1.8151,1.1644,-16.6529,-6.2869,1.9349,-11.9686,-1.1192
1.9669,0.1837,2.9097,1.6823,-0.6293,0.0098,-0.7319,-0.4157,-0.2763,-12.5543,-3.5754,2.6864,-17.5181,-1.6782
-1.0206,-6.416,-2.2687,-3.6919,3.2915,-0.0311,0.1867,-1.4415,-1.2911,-9.8548,-2.1749,0.2294,-8.7476,-1.5024
-2.6257,-2.9692,-3.7391,-1.8534,4.0288,-0.0321,0.7668,0.1885,-0.6258,-6.9573,-1.6505,-0.7536,5.4239,0.3472
-0.4318,7.2011,-0.0774,2.5977,1.3886,0.0157,0.771,2.5508,1.0433,-2.6195,-0.0821,1.6223,9.1641,2.229
3.2933,10.1072,3.4055,3.0262,-2.4406,0.0432,0.4328,2.9714,1.9484,4.1756,2.337,3.5142,5.5167,3.1161
4.7092,2.9354,3.3675,0.8574,-3.2519,0.0119,-0.143,0.9727,1.1328,11.649,3.6505,1.8074,5.6566,2.9574
3.2464,-2.2358,1.9947,-0.4214,1.199,-0.022,-0.6691,-1.5431,-0.541,16.2951,4.2147,-0.2928,7.557,2.0204
1.9729,1.3951,2.2182,-0.9576,7.3936,-0.0096,-0.7008,-2.5601,-1.4854,17.8876,5.952,1.2341,4.9065,1.3912
2.0965,5.1968,3.0145,-0.5252,8.6676,0.0101,-0.3068,-2.0386,-1.2735,16.9009,6.7822,2.9251,1.4631,1.2462
0.4808,0.9699,1.4532,2.4608,2.3871,-0.0033,0.0244,-1.1784,-0.6433,8.5376,2,-1.0792,0.1156,-0.6735
-4.2221,-6.0225,-2.351,5.2851,-6.5291,-0.0157,0.1125,-0.3963,-0.0852,-10.356,-7.0949,-7.568,-5.6675,-4.9822
-7.7952,-7.9396,-5.7454,1.9529,-10.2504,0.0037,0.1328,0.3549,0.2738,-30.4009,-12.946,-8.4928,-16.0668,-7.7302
-7.0589,-6.4182,-7.4782,-6.6661,-6.4327,0.0196,0.1269,0.4823,0.0966,-36.9947,-11.8012,-4.265,-18.5029,-5.9008
-4.6711,-5.9825,-7.3951,-10.8816,-0.7469,0.0017,0.0028,-0.0393,-0.4498,-27.886,-7.3848,-1.3311,-8.7217,-2.1996
-3.4688,-5.4786,-4.7472,-5.3118,0.3057,-0.0192,-0.0615,0.0932,-0.3664,-14.2503,-3.8406,-0.5326,0.0216,-0.4998
-1.5542,-1.5633,0.1494,3.5161,-2.4969,-0.0102,0.2161,1.5062,0.7176,-4.5073,-1.0426,1.7229,-0.5334,-0.0323
3.6788,5.6643,5.3807,7.9287,-3.1839,0.0123,0.5165,2.9616,1.7824,2.6684,1.8905,5.3358,-1.2507,2.3109
9.9062,11.7917,8.7833,8.0641,0.084,0.0177,0.134,2.8832,1.6945,6.6192,2.6048,6.4946,3.5142,5.6578
11.0142,11.2176,7.8176,5.7402,2.6834,0.0083,-0.715,1.0564,0.4916,0.8817,-1.3016,2.8171,3.9408,5.2244
5.0503,4.4681,2.313,1.1956,1.9173,0.0047,-0.8535,-1.0974,-0.7636,-9.5383,-5.8528,-3.1249,-3.5568,0.2381
-0.9935,-0.3338,-1.8758,-1.6201,1.5977,0.005,-0.0051,-1.9128,-1.1559,-5.7758,-3.6741,-5.294,-5.3254,-2.9677
-0.1164,0.9626,0.1991,0.7946,4.1972,-0.0062,0.6471,-1.4825,-0.8498,14.8005,4.4024,-1.9792,4.5891,-0.4243
3.2021,2.2913,3.4497,3.0563,5.2255,-0.0173,0.3802,-1.2082,-0.564,27.3443,8.7456,1.0282,11.2383,2.5309
0.3334,-1.0082,0.6511,-1.1144,1.4637,-0.0027,-0.1027,-1.3691,-0.4489,16.053,5.2338,-0.243,4.2735,0.339
-5.7421,-4.0945,-4.5862,-6.9309,-2.4264,0.0246,-0.12,-1.0269,-0.198,-1.3607,0.65,-1.8441,-4.8079,-3.2176
-5.3983,-2.58,-4.2581,-5.8788,-2.0807,0.0236,0.051,-0.025,0.1667,-4.7262,0.0763,-0.3267,-3.447,-2.2262
